OOIBase32 Version 2.0.0.6 Data File
++++++++++++++++++++++++++++++++++++
Date: 01-22-2012, 21:05:06
User: Valued Ocean Optics Customer
Spectrometer Serial Number: USB2E2917
Spectrometer Channel: Master
Integration Time (msec): 4
Spectra Averaged: 10
Boxcar Smoothing: 5
Correct for Electrical Dark: Enabled
Time Normalized: Disabled
Dual-beam Reference: Disabled
Reference Channel: Master
Temperature: Not acquired
Spectrometer Type: S2000
ADC Type: USB2000
Number of Pixels in File: 2048
Graph Title: 
>>>>>Begin Spectral Data<<<<<
180.30	0.000
180.67	0.000
181.03	-140.651
181.40	121.491
181.77	-41.846
182.14	-80.733
182.51	-503.877
182.88	148.783
183.25	127.659
183.62	27.592
183.99	23.555
184.36	136.549
184.73	86.783
185.10	1714.959
185.46	13.540
185.83	26.019
186.20	-5.115
186.57	430.362
186.94	109.513
187.31	10.742
187.68	-2841.918
188.05	-122.578
188.42	-59.671
188.78	225.011
189.15	104.783
189.52	82.361
189.89	53.325
190.26	52.910
190.63	29.137
191.00	1.058
191.37	-3.047
191.73	-18.430
192.10	-50.036
192.47	-38.975
192.84	-241.985
193.21	-405.871
193.58	-426.899
193.94	-309.680
194.31	-136.080
194.68	-53.767
195.05	-34.397
195.42	-45.046
195.79	-40.616
196.15	-6.682
196.52	-17.181
196.89	-7.566
197.26	3.773
197.63	3.797
198.00	13.289
198.36	-52.880
198.73	-79.327
199.10	-65.647
199.47	4.552
199.84	18.941
200.20	-8.987
200.57	13.602
200.94	28.856
201.31	36.619
201.68	43.478
202.04	38.952
202.41	37.303
202.78	31.129
203.15	27.400
203.51	20.667
203.88	13.181
204.25	8.550
204.62	0.057
204.98	-0.810
205.35	-30.487
205.72	-80.939
206.09	-165.342
206.46	-93.152
206.82	-131.437
207.19	-130.717
207.56	-151.462
207.92	-177.143
208.29	-105.206
208.66	-84.599
209.03	-84.176
209.39	-33.309
209.76	-18.540
210.13	1.846
210.50	-0.880
210.86	-14.987
211.23	-26.101
211.60	-38.360
211.96	-26.933
212.33	-98.306
212.70	3326.740
213.07	345.024
213.43	308.649
213.80	844.951
214.17	186.489
214.53	902.945
214.90	-41.659
215.27	-15.229
215.63	-45.465
216.00	-30.012
216.37	-8.175
216.74	-1.043
217.10	-5.017
217.47	1.965
217.84	0.062
218.20	6.202
218.57	4.877
218.94	-14.288
219.30	-1.076
219.67	10.503
220.04	13.015
220.40	15.451
220.77	14.657
221.13	24.863
221.50	20.967
221.87	22.449
222.23	25.368
222.60	24.219
222.97	23.043
223.33	12.964
223.70	4.072
224.07	0.220
224.43	0.523
224.80	6.627
225.16	1.095
225.53	-1.670
225.90	-3.177
226.26	-4.693
226.63	-7.042
226.99	-6.002
227.36	-1.970
227.73	0.902
228.09	0.451
228.46	0.834
228.82	-2.682
229.19	-0.791
229.56	-2.019
229.92	-0.295
230.29	0.008
230.65	3.404
231.02	2.678
231.38	2.114
231.75	0.813
232.12	1.807
232.48	-0.201
232.85	2.273
233.21	1.592
233.58	4.754
233.94	4.490
234.31	6.734
234.68	3.702
235.04	5.273
235.41	4.689
235.77	4.058
236.14	3.894
236.50	6.958
236.87	7.099
237.23	6.522
237.60	4.423
237.96	3.607
238.33	1.924
238.69	3.567
239.06	2.749
239.42	2.721
239.79	2.990
240.15	4.001
240.52	3.311
240.88	2.712
241.25	2.087
241.61	1.778
241.98	2.106
242.34	2.160
242.71	1.678
243.07	2.292
243.44	2.014
243.80	2.279
244.17	1.409
244.53	1.077
244.90	1.378
245.26	1.763
245.63	2.171
245.99	2.070
246.36	2.160
246.72	2.172
247.09	2.030
247.45	2.475
247.81	2.482
248.18	2.797
248.54	3.225
248.91	2.945
249.27	3.181
249.64	3.579
250.00	3.836
250.36	4.114
250.73	3.863
251.09	3.090
251.46	2.730
251.82	2.730
252.19	2.782
252.55	2.478
252.91	2.564
253.28	2.063
253.64	1.125
254.01	0.733
254.37	0.839
254.73	1.360
255.10	2.221
255.46	2.564
255.83	2.674
256.19	2.883
256.55	2.922
256.92	2.886
257.28	3.194
257.65	3.547
258.01	3.340
258.37	3.237
258.74	3.190
259.10	3.233
259.46	2.916
259.83	2.869
260.19	2.704
260.55	2.559
260.92	2.461
261.28	2.315
261.64	1.879
262.01	1.876
262.37	1.786
262.73	1.563
263.10	1.016
263.46	1.769
263.82	1.322
264.19	1.088
264.55	1.172
264.91	1.488
265.28	1.417
265.64	1.554
266.00	1.692
266.37	1.821
266.73	2.181
267.09	2.247
267.46	1.600
267.82	1.928
268.18	2.106
268.54	2.153
268.91	2.434
269.27	2.526
269.63	2.439
270.00	2.646
270.36	2.626
270.72	2.371
271.08	2.388
271.45	2.788
271.81	2.843
272.17	3.076
272.53	3.262
272.90	3.013
273.26	2.779
273.62	3.049
273.98	2.900
274.35	3.020
274.71	2.948
275.07	3.384
275.43	3.288
275.80	3.231
276.16	3.243
276.52	3.211
276.88	3.265
277.25	3.347
277.61	3.357
277.97	3.472
278.33	3.257
278.69	3.415
279.06	3.024
279.42	2.947
279.78	2.921
280.14	2.856
280.50	2.759
280.87	2.571
281.23	2.613
281.59	2.630
281.95	2.431
282.31	2.427
282.68	2.422
283.04	2.356
283.40	2.131
283.76	2.121
284.12	1.944
284.48	1.909
284.85	1.908
285.21	1.932
285.57	1.917
285.93	2.152
286.29	2.139
286.65	2.148
287.02	2.409
287.38	2.519
287.74	2.616
288.10	2.720
288.46	2.644
288.82	2.642
289.18	2.348
289.54	2.208
289.91	2.078
290.27	2.247
290.63	2.298
290.99	2.153
291.35	2.223
291.71	1.919
292.07	1.728
292.43	1.769
292.79	1.880
293.16	2.295
293.52	2.290
293.88	2.411
294.24	2.341
294.60	2.383
294.96	2.304
295.32	2.460
295.68	2.509
296.04	2.776
296.40	2.876
296.76	2.850
297.12	2.764
297.49	2.966
297.85	3.024
298.21	3.065
298.57	2.851
298.93	3.141
299.29	2.968
299.65	3.187
300.01	3.125
300.37	3.215
300.73	3.236
301.09	3.367
301.45	3.246
301.81	3.298
302.17	3.322
302.53	3.390
302.89	3.171
303.25	3.342
303.61	3.259
303.97	3.286
304.33	3.229
304.69	3.584
305.05	3.512
305.41	3.618
305.77	3.446
306.13	3.490
306.49	3.721
306.85	3.887
307.21	3.688
307.57	3.548
307.93	3.475
308.29	3.598
308.65	3.318
309.01	3.380
309.37	3.354
309.73	3.418
310.09	3.429
310.45	3.260
310.81	3.188
311.17	3.281
311.53	3.483
311.89	3.586
312.25	3.403
312.61	3.517
312.96	3.567
313.32	3.590
313.68	3.415
314.04	3.318
314.40	3.283
314.76	3.362
315.12	3.488
315.48	3.448
315.84	3.225
316.20	3.267
316.56	3.186
316.92	2.923
317.27	2.919
317.63	3.051
317.99	3.066
318.35	3.171
318.71	3.207
319.07	3.121
319.43	3.047
319.79	3.271
320.15	3.394
320.50	3.492
320.86	3.614
321.22	3.661
321.58	3.616
321.94	3.716
322.30	3.965
322.66	4.012
323.01	3.963
323.37	4.224
323.73	4.209
324.09	4.406
324.45	4.436
324.81	4.609
325.17	4.639
325.52	4.859
325.88	4.869
326.24	4.682
326.60	4.640
326.96	4.822
327.31	4.630
327.67	4.713
328.03	4.653
328.39	4.608
328.75	4.685
329.11	4.723
329.46	4.797
329.82	4.906
330.18	5.046
330.54	5.114
330.90	5.145
331.25	5.336
331.61	5.378
331.97	5.334
332.33	5.332
332.68	5.322
333.04	5.378
333.40	5.344
333.76	5.387
334.11	5.422
334.47	5.497
334.83	5.490
335.19	5.409
335.54	5.334
335.90	5.203
336.26	5.314
336.62	5.314
336.97	5.288
337.33	5.283
337.69	5.215
338.05	5.279
338.40	5.185
338.76	5.284
339.12	5.331
339.48	5.372
339.83	5.505
340.19	5.557
340.55	5.545
340.90	5.566
341.26	5.544
341.62	5.417
341.97	5.421
342.33	5.439
342.69	5.386
343.04	5.402
343.40	5.515
343.76	5.533
344.12	5.500
344.47	5.472
344.83	5.557
345.19	5.672
345.54	5.855
345.90	5.757
346.26	5.804
346.61	5.758
346.97	5.877
347.32	5.735
347.68	5.766
348.04	5.813
348.39	5.872
348.75	5.844
349.11	5.734
349.46	5.731
349.82	5.743
350.18	5.784
350.53	5.886
350.89	5.753
351.24	5.832
351.60	5.811
351.96	5.784
352.31	5.755
352.67	5.741
353.02	5.837
353.38	5.861
353.74	5.948
354.09	5.915
354.45	5.874
354.80	5.870
355.16	5.907
355.52	5.930
355.87	5.937
356.23	6.000
356.58	5.984
356.94	6.004
357.29	5.981
357.65	5.918
358.00	5.907
358.36	5.928
358.72	5.897
359.07	5.879
359.43	5.887
359.78	5.821
360.14	5.768
360.49	5.761
360.85	5.660
361.20	5.678
361.56	5.696
361.91	5.738
362.27	5.782
362.62	5.856
362.98	5.918
363.33	5.944
363.69	6.064
364.04	6.117
364.40	6.188
364.75	6.185
365.11	6.128
365.46	6.156
365.82	6.093
366.17	6.019
366.53	6.003
366.88	5.971
367.24	5.993
367.59	5.996
367.95	5.990
368.30	5.938
368.66	5.985
369.01	6.018
369.37	6.063
369.72	6.125
370.08	6.212
370.43	6.287
370.78	6.315
371.14	6.317
371.49	6.292
371.85	6.281
372.20	6.288
372.56	6.410
372.91	6.401
373.26	6.430
373.62	6.394
373.97	6.350
374.33	6.277
374.68	6.292
375.03	6.246
375.39	6.210
375.74	6.282
376.10	6.319
376.45	6.275
376.80	6.336
377.16	6.270
377.51	6.286
377.87	6.354
378.22	6.406
378.57	6.385
378.93	6.432
379.28	6.502
379.63	6.480
379.99	6.500
380.34	6.476
380.70	6.475
381.05	6.536
381.40	6.562
381.76	6.554
382.11	6.546
382.46	6.557
382.82	6.575
383.17	6.498
383.52	6.500
383.88	6.504
384.23	6.573
384.58	6.570
384.94	6.601
385.29	6.634
385.64	6.620
385.99	6.633
386.35	6.648
386.70	6.648
387.05	6.699
387.41	6.743
387.76	6.722
388.11	6.676
388.47	6.688
388.82	6.655
389.17	6.659
389.52	6.644
389.88	6.696
390.23	6.728
390.58	6.715
390.93	6.766
391.29	6.784
391.64	6.832
391.99	6.885
392.34	6.909
392.70	6.944
393.05	6.991
393.40	7.046
393.75	7.065
394.11	7.070
394.46	7.115
394.81	7.133
395.16	7.122
395.52	7.125
395.87	7.140
396.22	7.181
396.57	7.161
396.92	7.123
397.28	7.099
397.63	7.067
397.98	7.065
398.33	7.071
398.68	7.070
399.04	7.050
399.39	7.061
399.74	7.059
400.09	7.024
400.44	7.055
400.80	7.076
401.15	7.097
401.50	7.145
401.85	7.174
402.20	7.190
402.55	7.219
402.90	7.256
403.26	7.265
403.61	7.258
403.96	7.291
404.31	7.310
404.66	7.340
405.01	7.370
405.36	7.339
405.72	7.380
406.07	7.404
406.42	7.406
406.77	7.447
407.12	7.475
407.47	7.524
407.82	7.528
408.17	7.525
408.53	7.542
408.88	7.560
409.23	7.580
409.58	7.556
409.93	7.543
410.28	7.547
410.63	7.520
410.98	7.529
411.33	7.530
411.68	7.586
412.03	7.557
412.38	7.554
412.73	7.547
413.09	7.559
413.44	7.521
413.79	7.543
414.14	7.562
414.49	7.560
414.84	7.567
415.19	7.558
415.54	7.530
415.89	7.556
416.24	7.573
416.59	7.574
416.94	7.579
417.29	7.603
417.64	7.581
417.99	7.575
418.34	7.583
418.69	7.544
419.04	7.513
419.39	7.511
419.74	7.511
420.09	7.490
420.44	7.488
420.79	7.473
421.14	7.464
421.49	7.479
421.84	7.485
422.19	7.482
422.54	7.518
422.89	7.537
423.24	7.544
423.59	7.550
423.94	7.575
424.29	7.589
424.64	7.624
424.99	7.684
425.34	7.715
425.68	7.717
426.03	7.756
426.38	7.762
426.73	7.801
427.08	7.810
427.43	7.845
427.78	7.822
428.13	7.830
428.48	7.832
428.83	7.789
429.18	7.784
429.53	7.808
429.87	7.796
430.22	7.786
430.57	7.792
430.92	7.796
431.27	7.791
431.62	7.815
431.97	7.819
432.32	7.830
432.67	7.863
433.01	7.876
433.36	7.875
433.71	7.908
434.06	7.950
434.41	7.951
434.76	7.986
435.11	8.016
435.45	8.041
435.80	8.043
436.15	8.055
436.50	8.031
436.85	8.036
437.20	8.029
437.54	8.034
437.89	8.042
438.24	8.056
438.59	8.046
438.94	8.033
439.29	8.027
439.63	8.017
439.98	8.010
440.33	8.018
440.68	8.010
441.03	8.015
441.37	7.983
441.72	7.956
442.07	7.953
442.42	7.943
442.76	7.968
443.11	7.957
443.46	7.970
443.81	7.970
444.16	7.985
444.50	7.996
444.85	8.008
445.20	8.020
445.55	8.040
445.89	8.042
446.24	8.056
446.59	8.040
446.94	8.046
447.28	8.063
447.63	8.055
447.98	8.044
448.32	8.044
448.67	8.049
449.02	8.051
449.37	8.054
449.71	8.072
450.06	8.090
450.41	8.094
450.75	8.110
451.10	8.113
451.45	8.129
451.79	8.151
452.14	8.151
452.49	8.162
452.84	8.182
453.18	8.189
453.53	8.201
453.88	8.211
454.22	8.214
454.57	8.241
454.92	8.248
455.26	8.255
455.61	8.253
455.95	8.274
456.30	8.276
456.65	8.283
456.99	8.270
457.34	8.265
457.69	8.274
458.03	8.287
458.38	8.297
458.73	8.338
459.07	8.359
459.42	8.393
459.76	8.405
460.11	8.444
460.46	8.478
460.80	8.517
461.15	8.535
461.49	8.549
461.84	8.584
462.19	8.599
462.53	8.584
462.88	8.606
463.22	8.619
463.57	8.657
463.91	8.658
464.26	8.658
464.61	8.675
464.95	8.723
465.30	8.741
465.64	8.759
465.99	8.773
466.33	8.789
466.68	8.802
467.02	8.803
467.37	8.815
467.71	8.815
468.06	8.828
468.41	8.834
468.75	8.836
469.10	8.868
469.44	8.884
469.79	8.892
470.13	8.916
470.48	8.940
470.82	8.964
471.17	8.964
471.51	8.967
471.86	9.008
472.20	9.017
472.55	9.014
472.89	9.008
473.23	8.995
473.58	8.980
473.92	8.972
474.27	8.953
474.61	8.938
474.96	8.933
475.30	8.961
475.65	8.931
475.99	8.938
476.34	8.925
476.68	8.911
477.02	8.917
477.37	8.940
477.71	8.928
478.06	8.925
478.40	8.925
478.75	8.960
479.09	8.998
479.43	9.051
479.78	9.116
480.12	9.187
480.47	9.275
480.81	9.353
481.15	9.440
481.50	9.537
481.84	9.664
482.19	9.796
482.53	9.875
482.87	9.904
483.22	9.854
483.56	9.741
483.90	9.629
484.25	9.534
484.59	9.485
484.94	9.417
485.28	9.343
485.62	9.240
485.97	9.113
486.31	9.027
486.65	8.995
487.00	9.055
487.34	9.173
487.68	9.301
488.03	9.385
488.37	9.416
488.71	9.426
489.06	9.440
489.40	9.457
489.74	9.486
490.09	9.501
490.43	9.512
490.77	9.521
491.11	9.565
491.46	9.602
491.80	9.622
492.14	9.644
492.49	9.703
492.83	9.738
493.17	9.768
493.51	9.794
493.86	9.847
494.20	9.887
494.54	9.924
494.88	9.945
495.23	9.976
495.57	10.015
495.91	10.058
496.25	10.085
496.60	10.140
496.94	10.185
497.28	10.245
497.62	10.287
497.97	10.356
498.31	10.420
498.65	10.478
498.99	10.534
499.33	10.608
499.68	10.669
500.02	10.739
500.36	10.796
500.70	10.860
501.04	10.924
501.39	10.997
501.73	11.041
502.07	11.090
502.41	11.155
502.75	11.221
503.09	11.289
503.44	11.374
503.78	11.422
504.12	11.495
504.46	11.573
504.80	11.642
505.14	11.696
505.49	11.774
505.83	11.860
506.17	11.925
506.51	11.967
506.85	12.030
507.19	12.085
507.53	12.161
507.87	12.216
508.22	12.268
508.56	12.329
508.90	12.396
509.24	12.439
509.58	12.497
509.92	12.536
510.26	12.590
510.60	12.640
510.94	12.703
511.28	12.760
511.63	12.839
511.97	12.896
512.31	12.941
512.65	12.985
512.99	13.062
513.33	13.113
513.67	13.182
514.01	13.251
514.35	13.310
514.69	13.349
515.03	13.398
515.37	13.426
515.71	13.458
516.05	13.507
516.39	13.540
516.73	13.560
517.07	13.607
517.41	13.643
517.75	13.678
518.09	13.714
518.43	13.754
518.77	13.801
519.11	13.828
519.45	13.869
519.79	13.907
520.13	13.965
520.47	14.019
520.81	14.048
521.15	14.082
521.49	14.133
521.83	14.151
522.17	14.169
522.51	14.176
522.85	14.226
523.19	14.283
523.53	14.345
523.87	14.423
524.21	14.516
524.55	14.619
524.89	14.701
525.23	14.771
525.57	14.845
525.91	14.910
526.25	14.985
526.58	15.045
526.92	15.095
527.26	15.142
527.60	15.164
527.94	15.171
528.28	15.158
528.62	15.159
528.96	15.154
529.30	15.145
529.64	15.141
529.97	15.127
530.31	15.110
530.65	15.095
530.99	15.074
531.33	15.082
531.67	15.087
532.01	15.109
532.35	15.117
532.68	15.127
533.02	15.141
533.36	15.154
533.70	15.162
534.04	15.176
534.38	15.183
534.71	15.193
535.05	15.182
535.39	15.181
535.73	15.173
536.07	15.182
536.41	15.207
536.74	15.218
537.08	15.248
537.42	15.288
537.76	15.317
538.10	15.343
538.43	15.390
538.77	15.441
539.11	15.495
539.45	15.527
539.79	15.557
540.12	15.576
540.46	15.609
540.80	15.611
541.14	15.608
541.47	15.620
541.81	15.634
542.15	15.642
542.49	15.632
542.82	15.619
543.16	15.624
543.50	15.639
543.84	15.650
544.17	15.640
544.51	15.647
544.85	15.655
545.18	15.644
545.52	15.658
545.86	15.672
546.20	15.706
546.53	15.705
546.87	15.725
547.21	15.741
547.54	15.771
547.88	15.818
548.22	15.855
548.55	15.896
548.89	15.941
549.23	15.977
549.56	15.992
549.90	16.003
550.24	16.037
550.57	16.047
550.91	16.048
551.25	16.054
551.58	16.052
551.92	16.073
552.26	16.107
552.59	16.127
552.93	16.135
553.27	16.130
553.60	16.120
553.94	16.134
554.27	16.149
554.61	16.158
554.95	16.194
555.28	16.233
555.62	16.235
555.95	16.221
556.29	16.233
556.63	16.274
556.96	16.289
557.30	16.355
557.63	16.378
557.97	16.426
558.31	16.440
558.64	16.430
558.98	16.435
559.31	16.469
559.65	16.476
559.98	16.443
560.32	16.425
560.65	16.459
560.99	16.435
561.33	16.420
561.66	16.391
562.00	16.425
562.33	16.434
562.67	16.399
563.00	16.402
563.34	16.431
563.67	16.479
564.01	16.481
564.34	16.461
564.68	16.469
565.01	16.500
565.35	16.532
565.68	16.535
566.02	16.501
566.35	16.535
566.69	16.511
567.02	16.487
567.36	16.508
567.69	16.494
568.03	16.492
568.36	16.508
568.69	16.511
569.03	16.494
569.36	16.471
569.70	16.507
570.03	16.519
570.37	16.547
570.70	16.576
571.04	16.553
571.37	16.568
571.70	16.584
572.04	16.587
572.37	16.614
572.71	16.641
573.04	16.644
573.37	16.657
573.71	16.660
574.04	16.666
574.38	16.665
574.71	16.684
575.04	16.716
575.38	16.731
575.71	16.755
576.05	16.729
576.38	16.758
576.71	16.780
577.05	16.800
577.38	16.795
577.71	16.807
578.05	16.840
578.38	16.840
578.71	16.843
579.05	16.842
579.38	16.831
579.71	16.850
580.05	16.834
580.38	16.850
580.71	16.848
581.05	16.871
581.38	16.887
581.71	16.876
582.05	16.898
582.38	16.883
582.71	16.859
583.04	16.855
583.38	16.857
583.71	16.851
584.04	16.856
584.38	16.861
584.71	16.854
585.04	16.849
585.37	16.829
585.71	16.842
586.04	16.827
586.37	16.854
586.70	16.828
587.04	16.839
587.37	16.818
587.70	16.777
588.03	16.740
588.37	16.744
588.70	16.715
589.03	16.701
589.36	16.675
589.69	16.670
590.03	16.622
590.36	16.643
590.69	16.581
591.02	16.562
591.35	16.569
591.69	16.554
592.02	16.514
592.35	16.511
592.68	16.485
593.01	16.440
593.35	16.461
593.68	16.456
594.01	16.427
594.34	16.454
594.67	16.437
595.00	16.368
595.34	16.335
595.67	16.331
596.00	16.287
596.33	16.292
596.66	16.302
596.99	16.275
597.32	16.271
597.65	16.236
597.99	16.198
598.32	16.176
598.65	16.206
598.98	16.209
599.31	16.210
599.64	16.230
599.97	16.217
600.30	16.183
600.63	16.124
600.96	16.142
601.30	16.127
601.63	16.124
601.96	16.135
602.29	16.152
602.62	16.160
602.95	16.129
603.28	16.103
603.61	16.075
603.94	16.047
604.27	16.065
604.60	15.999
604.93	15.998
605.26	15.958
605.59	15.929
605.92	15.889
606.25	15.865
606.58	15.843
606.91	15.826
607.24	15.838
607.57	15.842
607.90	15.829
608.23	15.835
608.56	15.825
608.89	15.802
609.22	15.745
609.55	15.753
609.88	15.734
610.21	15.723
610.54	15.675
610.87	15.617
611.20	15.547
611.53	15.518
611.86	15.509
612.19	15.486
612.52	15.461
612.85	15.506
613.18	15.478
613.51	15.427
613.84	15.403
614.17	15.418
614.49	15.392
614.82	15.448
615.15	15.425
615.48	15.383
615.81	15.379
616.14	15.380
616.47	15.322
616.80	15.295
617.13	15.305
617.46	15.261
617.78	15.196
618.11	15.219
618.44	15.187
618.77	15.157
619.10	15.116
619.43	15.085
619.76	15.035
620.09	15.001
620.41	14.964
620.74	14.933
621.07	14.938
621.40	15.003
621.73	14.942
622.06	14.936
622.38	14.978
622.71	15.011
623.04	14.981
623.37	14.996
623.70	15.006
624.02	15.004
624.35	15.028
624.68	15.041
625.01	15.007
625.34	15.026
625.66	14.997
625.99	14.934
626.32	14.900
626.65	14.923
626.98	14.891
627.30	14.911
627.63	14.900
627.96	14.861
628.29	14.796
628.61	14.750
628.94	14.728
629.27	14.713
629.60	14.695
629.92	14.686
630.25	14.614
630.58	14.605
630.91	14.517
631.23	14.494
631.56	14.468
631.89	14.464
632.21	14.450
632.54	14.447
632.87	14.396
633.19	14.380
633.52	14.328
633.85	14.293
634.18	14.255
634.50	14.265
634.83	14.203
635.16	14.186
635.48	14.134
635.81	14.133
636.14	14.059
636.46	14.048
636.79	14.001
637.11	13.964
637.44	13.969
637.77	13.965
638.09	13.904
638.42	13.856
638.75	13.801
639.07	13.772
639.40	13.727
639.73	13.710
640.05	13.617
640.38	13.577
640.70	13.579
641.03	13.532
641.36	13.517
641.68	13.527
642.01	13.587
642.33	13.579
642.66	13.536
642.98	13.503
643.31	13.471
643.64	13.540
643.96	13.566
644.29	13.533
644.61	13.511
644.94	13.494
645.26	13.496
645.59	13.477
645.91	13.465
646.24	13.487
646.56	13.476
646.89	13.488
647.22	13.449
647.54	13.403
647.87	13.397
648.19	13.418
