OOIBase32 Version 2.0.0.6 Data File
++++++++++++++++++++++++++++++++++++
Date: 01-20-2012, 23:16:10
User: Valued Ocean Optics Customer
Spectrometer Serial Number: USB2E2917
Spectrometer Channel: Master
Integration Time (msec): 3
Spectra Averaged: 10
Boxcar Smoothing: 5
Correct for Electrical Dark: Enabled
Time Normalized: Disabled
Dual-beam Reference: Disabled
Reference Channel: Master
Temperature: Not acquired
Spectrometer Type: S2000
ADC Type: USB2000
Number of Pixels in File: 2048
Graph Title: 
>>>>>Begin Spectral Data<<<<<
180.30	0.000
180.67	0.000
181.03	-21.279
181.40	445.607
181.77	231.758
182.14	-1035.387
182.51	49.824
182.88	124.139
183.25	-182.678
183.62	508.979
183.99	174.563
184.36	37.727
184.73	297.195
185.10	92.736
185.46	-59.082
185.83	-248.715
186.20	125.398
186.57	131.081
186.94	144.412
187.31	201.714
187.68	262.333
188.05	109.079
188.42	81.884
188.78	75.539
189.15	78.662
189.52	61.344
189.89	46.328
190.26	52.861
190.63	45.613
191.00	39.696
191.37	26.186
191.73	26.910
192.10	29.148
192.47	25.630
192.84	23.154
193.21	28.345
193.58	34.756
193.94	40.954
194.31	36.070
194.68	14.205
195.05	18.679
195.42	32.990
195.79	27.480
196.15	36.745
196.52	46.082
196.89	50.286
197.26	49.977
197.63	44.174
198.00	27.205
198.36	0.775
198.73	-991.268
199.10	4387.174
199.47	-440.397
199.84	264.221
200.20	98.849
200.57	80.460
200.94	176.121
201.31	37.390
201.68	82.954
202.04	61.966
202.41	52.341
202.78	39.198
203.15	15.152
203.51	1.273
203.88	0.477
204.25	4.965
204.62	6.834
204.98	18.539
205.35	25.896
205.72	21.725
206.09	35.842
206.46	51.039
206.82	44.239
207.19	47.291
207.56	51.189
207.92	56.529
208.29	47.372
208.66	43.860
209.03	40.616
209.39	33.544
209.76	27.625
210.13	5.669
210.50	7.749
210.86	13.382
211.23	9.597
211.60	8.045
211.96	-11.300
212.33	-8.115
212.70	5.954
213.07	9.176
213.43	9.564
213.80	9.321
214.17	13.075
214.53	12.749
214.90	10.881
215.27	35.563
215.63	39.280
216.00	42.738
216.37	39.911
216.74	40.889
217.10	40.985
217.47	50.605
217.84	50.222
218.20	48.705
218.57	33.844
218.94	32.823
219.30	17.844
219.67	9.231
220.04	15.698
220.40	16.681
220.77	4.713
221.13	-0.383
221.50	-11.399
221.87	-15.971
222.23	-15.713
222.60	-12.550
222.97	-9.290
223.33	1.414
223.70	7.292
224.07	1.124
224.43	5.309
224.80	8.517
225.16	7.727
225.53	7.188
225.90	6.745
226.26	7.900
226.63	9.178
226.99	8.284
227.36	6.891
227.73	6.230
228.09	6.631
228.46	5.933
228.82	5.626
229.19	6.382
229.56	7.085
229.92	8.733
230.29	7.571
230.65	6.574
231.02	6.413
231.38	5.898
231.75	6.077
232.12	6.177
232.48	5.430
232.85	5.206
233.21	4.450
233.58	5.458
233.94	5.417
234.31	5.016
234.68	4.778
235.04	5.419
235.41	5.525
235.77	5.041
236.14	6.136
236.50	4.967
236.87	4.113
237.23	4.141
237.60	3.066
237.96	1.640
238.33	3.158
238.69	2.943
239.06	2.572
239.42	3.316
239.79	2.937
240.15	2.422
240.52	2.705
240.88	2.708
241.25	2.548
241.61	2.178
241.98	2.726
242.34	2.533
242.71	2.924
243.07	2.850
243.44	2.619
243.80	2.598
244.17	2.964
244.53	3.555
244.90	3.827
245.26	4.010
245.63	4.011
245.99	3.865
246.36	3.935
246.72	3.740
247.09	3.487
247.45	3.611
247.81	3.970
248.18	4.000
248.54	3.260
248.91	3.173
249.27	3.321
249.64	3.382
250.00	3.366
250.36	3.429
250.73	3.871
251.09	4.682
251.46	4.147
251.82	3.712
252.19	2.930
252.55	3.538
252.91	3.103
253.28	2.428
253.64	2.477
254.01	2.162
254.37	1.929
254.73	1.691
255.10	1.226
255.46	1.755
255.83	1.828
256.19	2.321
256.55	2.422
256.92	2.552
257.28	2.643
257.65	2.754
258.01	2.828
258.37	2.739
258.74	2.911
259.10	2.969
259.46	2.992
259.83	3.150
260.19	3.175
260.55	3.240
260.92	3.332
261.28	3.059
261.64	3.077
262.01	3.456
262.37	3.825
262.73	3.866
263.10	4.252
263.46	4.151
263.82	4.087
264.19	4.093
264.55	3.628
264.91	3.784
265.28	4.181
265.64	4.064
266.00	3.824
266.37	3.512
266.73	3.366
267.09	3.014
267.46	3.260
267.82	3.362
268.18	3.312
268.54	3.622
268.91	3.524
269.27	3.461
269.63	3.525
270.00	3.460
270.36	3.424
270.72	3.254
271.08	3.462
271.45	3.365
271.81	3.092
272.17	2.993
272.53	2.827
272.90	2.826
273.26	2.658
273.62	2.343
273.98	2.066
274.35	2.263
274.71	2.642
275.07	2.324
275.43	2.207
275.80	2.361
276.16	2.174
276.52	2.285
276.88	2.020
277.25	2.597
277.61	2.858
277.97	3.183
278.33	3.092
278.69	2.749
279.06	2.714
279.42	2.878
279.78	2.920
280.14	2.987
280.50	2.739
280.87	2.889
281.23	2.580
281.59	2.573
281.95	2.351
282.31	2.350
282.68	2.453
283.04	2.702
283.40	2.745
283.76	2.829
284.12	2.861
284.48	3.057
284.85	3.087
285.21	3.277
285.57	3.076
285.93	3.166
286.29	3.157
286.65	3.095
287.02	3.147
287.38	3.015
287.74	2.926
288.10	2.991
288.46	2.914
288.82	3.006
289.18	2.855
289.54	2.973
289.91	2.967
290.27	2.956
290.63	3.078
290.99	2.991
291.35	2.998
291.71	2.914
292.07	2.774
292.43	2.942
292.79	2.658
293.16	2.607
293.52	2.716
293.88	2.756
294.24	2.894
294.60	2.839
294.96	2.954
295.32	3.011
295.68	3.131
296.04	3.112
296.40	2.856
296.76	2.819
297.12	2.837
297.49	2.840
297.85	2.798
298.21	2.681
298.57	2.611
298.93	2.606
299.29	2.596
299.65	2.598
300.01	2.636
300.37	2.884
300.73	3.211
301.09	3.276
301.45	3.271
301.81	3.384
302.17	3.456
302.53	3.594
302.89	3.418
303.25	3.478
303.61	3.568
303.97	3.713
304.33	3.568
304.69	3.440
305.05	3.475
305.41	3.477
305.77	3.426
306.13	3.282
306.49	3.120
306.85	3.047
307.21	2.964
307.57	2.829
307.93	2.697
308.29	2.730
308.65	2.760
309.01	2.745
309.37	2.888
309.73	2.973
310.09	3.085
310.45	3.125
310.81	3.219
311.17	3.250
311.53	3.204
311.89	3.368
312.25	3.446
312.61	3.541
312.96	3.432
313.32	3.342
313.68	3.405
314.04	3.328
314.40	3.436
314.76	3.401
315.12	3.382
315.48	3.502
315.84	3.333
316.20	3.190
316.56	3.114
316.92	3.402
317.27	3.401
317.63	3.206
317.99	3.416
318.35	3.325
318.71	3.360
319.07	3.501
319.43	3.458
319.79	3.694
320.15	3.835
320.50	3.920
320.86	3.861
321.22	3.960
321.58	3.995
321.94	3.795
322.30	3.853
322.66	3.812
323.01	3.748
323.37	3.772
323.73	3.643
324.09	3.540
324.45	3.587
324.81	3.568
325.17	3.536
325.52	3.627
325.88	3.672
326.24	3.608
326.60	3.849
326.96	4.053
327.31	4.265
327.67	4.422
328.03	4.668
328.39	4.648
328.75	4.609
329.11	4.764
329.46	4.729
329.82	4.769
330.18	5.024
330.54	4.874
330.90	4.643
331.25	4.501
331.61	4.578
331.97	4.613
332.33	4.638
332.68	4.717
333.04	4.615
333.40	4.714
333.76	4.781
334.11	4.722
334.47	4.688
334.83	4.783
335.19	4.847
335.54	4.706
335.90	4.507
336.26	4.449
336.62	4.440
336.97	4.529
337.33	4.530
337.69	4.531
338.05	4.525
338.40	4.545
338.76	4.475
339.12	4.604
339.48	4.707
339.83	4.788
340.19	4.800
340.55	4.752
340.90	4.677
341.26	4.572
341.62	4.604
341.97	4.567
342.33	4.498
342.69	4.529
343.04	4.496
343.40	4.437
343.76	4.446
344.12	4.467
344.47	4.406
344.83	4.392
345.19	4.452
345.54	4.363
345.90	4.405
346.26	4.457
346.61	4.444
346.97	4.281
347.32	4.214
347.68	4.176
348.04	4.188
348.39	4.290
348.75	4.333
349.11	4.390
349.46	4.483
349.82	4.420
350.18	4.429
350.53	4.418
350.89	4.495
351.24	4.564
351.60	4.571
351.96	4.539
352.31	4.515
352.67	4.553
353.02	4.512
353.38	4.445
353.74	4.450
354.09	4.471
354.45	4.529
354.80	4.563
355.16	4.552
355.52	4.598
355.87	4.604
356.23	4.648
356.58	4.564
356.94	4.520
357.29	4.561
357.65	4.580
358.00	4.595
358.36	4.591
358.72	4.623
359.07	4.649
359.43	4.604
359.78	4.666
360.14	4.600
360.49	4.629
360.85	4.734
361.20	4.743
361.56	4.736
361.91	4.711
362.27	4.698
362.62	4.666
362.98	4.659
363.33	4.694
363.69	4.643
364.04	4.706
364.40	4.748
364.75	4.727
365.11	4.699
365.46	4.755
365.82	4.777
366.17	4.840
366.53	4.840
366.88	4.855
367.24	4.911
367.59	5.017
367.95	5.051
368.30	5.046
368.66	4.946
369.01	4.942
369.37	4.878
369.72	4.953
370.08	4.929
370.43	4.938
370.78	4.923
371.14	4.931
371.49	4.863
371.85	4.900
372.20	4.873
372.56	4.937
372.91	4.997
373.26	5.047
373.62	5.053
373.97	5.095
374.33	5.024
374.68	5.059
375.03	5.043
375.39	5.064
375.74	5.018
376.10	5.070
376.45	5.111
376.80	5.159
377.16	5.127
377.51	5.098
377.87	5.028
378.22	5.098
378.57	5.114
378.93	5.153
379.28	5.206
379.63	5.264
379.99	5.239
380.34	5.246
380.70	5.225
381.05	5.313
381.40	5.394
381.76	5.467
382.11	5.447
382.46	5.470
382.82	5.447
383.17	5.479
383.52	5.443
383.88	5.477
384.23	5.522
384.58	5.552
384.94	5.582
385.29	5.589
385.64	5.638
385.99	5.709
386.35	5.721
386.70	5.774
387.05	5.733
387.41	5.776
387.76	5.817
388.11	5.865
388.47	5.841
388.82	5.880
389.17	5.906
389.52	5.920
389.88	5.968
390.23	6.059
390.58	6.059
390.93	6.096
391.29	6.105
391.64	6.123
391.99	6.087
392.34	6.134
392.70	6.130
393.05	6.131
393.40	6.137
393.75	6.109
394.11	6.087
394.46	6.163
394.81	6.172
395.16	6.216
395.52	6.216
395.87	6.259
396.22	6.317
396.57	6.322
396.92	6.333
397.28	6.361
397.63	6.447
397.98	6.482
398.33	6.487
398.68	6.519
399.04	6.574
399.39	6.655
399.74	6.635
400.09	6.616
400.44	6.656
400.80	6.657
401.15	6.675
401.50	6.687
401.85	6.698
402.20	6.706
402.55	6.743
402.90	6.737
403.26	6.733
403.61	6.795
403.96	6.844
404.31	6.863
404.66	6.905
405.01	6.941
405.36	6.959
405.72	6.976
406.07	6.971
406.42	7.021
406.77	7.020
407.12	7.031
407.47	7.075
407.82	7.095
408.17	7.117
408.53	7.176
408.88	7.204
409.23	7.244
409.58	7.257
409.93	7.322
410.28	7.304
410.63	7.365
410.98	7.372
411.33	7.326
411.68	7.345
412.03	7.358
412.38	7.324
412.73	7.324
413.09	7.313
413.44	7.339
413.79	7.341
414.14	7.332
414.49	7.312
414.84	7.380
415.19	7.413
415.54	7.405
415.89	7.396
416.24	7.441
416.59	7.446
416.94	7.461
417.29	7.464
417.64	7.484
417.99	7.538
418.34	7.563
418.69	7.561
419.04	7.584
419.39	7.609
419.74	7.643
420.09	7.646
420.44	7.653
420.79	7.672
421.14	7.679
421.49	7.669
421.84	7.633
422.19	7.637
422.54	7.624
422.89	7.623
423.24	7.617
423.59	7.623
423.94	7.630
424.29	7.676
424.64	7.660
424.99	7.660
425.34	7.706
425.68	7.781
426.03	7.836
426.38	7.870
426.73	7.932
427.08	7.971
427.43	7.999
427.78	8.000
428.13	8.017
428.48	8.088
428.83	8.137
429.18	8.175
429.53	8.156
429.87	8.129
430.22	8.154
430.57	8.159
430.92	8.191
431.27	8.219
431.62	8.244
431.97	8.249
432.32	8.240
432.67	8.250
433.01	8.222
433.36	8.234
433.71	8.266
434.06	8.278
434.41	8.295
434.76	8.279
435.11	8.291
435.45	8.307
435.80	8.318
436.15	8.343
436.50	8.351
436.85	8.405
437.20	8.439
437.54	8.446
437.89	8.473
438.24	8.485
438.59	8.513
438.94	8.502
439.29	8.521
439.63	8.513
439.98	8.520
440.33	8.531
440.68	8.501
441.03	8.501
441.37	8.518
441.72	8.503
442.07	8.508
442.42	8.539
442.76	8.564
443.11	8.548
443.46	8.559
443.81	8.566
444.16	8.584
444.50	8.606
444.85	8.613
445.20	8.619
445.55	8.645
445.89	8.639
446.24	8.615
446.59	8.603
446.94	8.627
447.28	8.640
447.63	8.657
447.98	8.664
448.32	8.646
448.67	8.642
449.02	8.630
449.37	8.648
449.71	8.661
450.06	8.694
450.41	8.721
450.75	8.724
451.10	8.749
451.45	8.758
451.79	8.750
452.14	8.757
452.49	8.778
452.84	8.773
453.18	8.763
453.53	8.790
453.88	8.820
454.22	8.800
454.57	8.803
454.92	8.790
455.26	8.784
455.61	8.808
455.95	8.832
456.30	8.849
456.65	8.894
456.99	8.915
457.34	8.923
457.69	8.908
458.03	8.940
458.38	8.958
458.73	8.974
459.07	8.987
459.42	9.005
459.76	9.019
460.11	9.043
460.46	9.060
460.80	9.053
461.15	9.049
461.49	9.068
461.84	9.088
462.19	9.125
462.53	9.144
462.88	9.159
463.22	9.159
463.57	9.172
463.91	9.168
464.26	9.205
464.61	9.238
464.95	9.258
465.30	9.266
465.64	9.265
465.99	9.259
466.33	9.273
466.68	9.327
467.02	9.360
467.37	9.398
467.71	9.409
468.06	9.391
468.41	9.416
468.75	9.425
469.10	9.475
469.44	9.495
469.79	9.512
470.13	9.514
470.48	9.494
470.82	9.478
471.17	9.484
471.51	9.496
471.86	9.522
472.20	9.504
472.55	9.536
472.89	9.539
473.23	9.548
473.58	9.553
473.92	9.581
474.27	9.555
474.61	9.553
474.96	9.540
475.30	9.546
475.65	9.510
475.99	9.507
476.34	9.523
476.68	9.508
477.02	9.519
477.37	9.520
477.71	9.518
478.06	9.570
478.40	9.583
478.75	9.612
479.09	9.647
479.43	9.686
479.78	9.719
480.12	9.749
480.47	9.766
480.81	9.791
481.15	9.824
481.50	9.840
481.84	9.858
482.19	9.893
482.53	9.924
482.87	9.941
483.22	9.959
483.56	9.970
483.90	9.959
484.25	9.968
484.59	9.963
484.94	9.949
485.28	9.945
485.62	9.930
485.97	9.913
486.31	9.897
486.65	9.890
487.00	9.890
487.34	9.892
487.68	9.894
488.03	9.896
488.37	9.900
488.71	9.913
489.06	9.920
489.40	9.932
489.74	9.945
490.09	9.942
490.43	9.944
490.77	9.934
491.11	9.947
491.46	9.977
491.80	10.000
492.14	10.017
492.49	10.040
492.83	10.074
493.17	10.092
493.51	10.114
493.86	10.126
494.20	10.147
494.54	10.175
494.88	10.196
495.23	10.237
495.57	10.252
495.91	10.292
496.25	10.304
496.60	10.341
496.94	10.372
497.28	10.414
497.62	10.473
497.97	10.520
498.31	10.571
498.65	10.606
498.99	10.619
499.33	10.638
499.68	10.641
500.02	10.686
500.36	10.695
500.70	10.739
501.04	10.772
501.39	10.792
501.73	10.814
502.07	10.850
502.41	10.910
502.75	10.965
503.09	11.015
503.44	11.036
503.78	11.077
504.12	11.127
504.46	11.154
504.80	11.167
505.14	11.199
505.49	11.231
505.83	11.274
506.17	11.274
506.51	11.307
506.85	11.323
507.19	11.374
507.53	11.410
507.87	11.430
508.22	11.473
508.56	11.503
508.90	11.539
509.24	11.570
509.58	11.597
509.92	11.634
510.26	11.651
510.60	11.693
510.94	11.757
511.28	11.782
511.63	11.829
511.97	11.834
512.31	11.885
512.65	11.922
512.99	11.966
513.33	11.979
513.67	11.974
514.01	12.005
514.35	12.028
514.69	12.021
515.03	12.054
515.37	12.062
515.71	12.093
516.05	12.085
516.39	12.112
516.73	12.118
517.07	12.122
517.41	12.149
517.75	12.153
518.09	12.154
518.43	12.160
518.77	12.157
519.11	12.168
519.45	12.174
519.79	12.188
520.13	12.174
520.47	12.205
520.81	12.226
521.15	12.249
521.49	12.271
521.83	12.330
522.17	12.357
522.51	12.384
522.85	12.415
523.19	12.445
523.53	12.492
523.87	12.563
524.21	12.609
524.55	12.660
524.89	12.693
525.23	12.716
525.57	12.730
525.91	12.779
526.25	12.807
526.58	12.827
526.92	12.859
527.26	12.875
527.60	12.876
527.94	12.867
528.28	12.869
528.62	12.873
528.96	12.870
529.30	12.874
529.64	12.859
529.97	12.856
530.31	12.844
530.65	12.833
530.99	12.835
531.33	12.834
531.67	12.838
532.01	12.861
532.35	12.882
532.68	12.896
533.02	12.898
533.36	12.890
533.70	12.889
534.04	12.921
534.38	12.913
534.71	12.909
535.05	12.892
535.39	12.917
535.73	12.894
536.07	12.887
536.41	12.894
536.74	12.909
537.08	12.939
537.42	12.933
537.76	12.925
538.10	12.958
538.43	12.961
538.77	13.020
539.11	13.026
539.45	13.041
539.79	13.055
540.12	13.085
540.46	13.104
540.80	13.093
541.14	13.116
541.47	13.131
541.81	13.135
542.15	13.153
542.49	13.127
542.82	13.134
543.16	13.131
543.50	13.123
543.84	13.088
544.17	13.103
544.51	13.124
544.85	13.142
545.18	13.156
545.52	13.177
545.86	13.183
546.20	13.189
546.53	13.191
546.87	13.218
547.21	13.239
547.54	13.291
547.88	13.270
548.22	13.296
548.55	13.300
548.89	13.336
549.23	13.338
549.56	13.375
549.90	13.365
550.24	13.391
550.57	13.410
550.91	13.423
551.25	13.422
551.58	13.445
551.92	13.429
552.26	13.444
552.59	13.436
552.93	13.419
553.27	13.415
553.60	13.457
553.94	13.472
554.27	13.462
554.61	13.462
554.95	13.454
555.28	13.470
555.62	13.530
555.95	13.522
556.29	13.526
556.63	13.558
556.96	13.576
557.30	13.562
557.63	13.539
557.97	13.546
558.31	13.580
558.64	13.596
558.98	13.601
559.31	13.588
559.65	13.619
559.98	13.627
560.32	13.658
560.65	13.653
560.99	13.702
561.33	13.726
561.66	13.752
562.00	13.738
562.33	13.761
562.67	13.779
563.00	13.792
563.34	13.808
563.67	13.820
564.01	13.823
564.34	13.822
564.68	13.835
565.01	13.845
565.35	13.841
565.68	13.869
566.02	13.891
566.35	13.905
566.69	13.917
567.02	13.913
567.36	13.939
567.69	13.932
568.03	13.999
568.36	14.006
568.69	14.011
569.03	14.042
569.36	14.023
569.70	14.043
570.03	14.060
570.37	14.067
570.70	14.088
571.04	14.089
571.37	14.102
571.70	14.070
572.04	14.078
572.37	14.089
572.71	14.071
573.04	14.097
573.37	14.064
573.71	14.031
574.04	14.039
574.38	14.074
574.71	14.111
575.04	14.127
575.38	14.136
575.71	14.149
576.05	14.190
576.38	14.215
576.71	14.233
577.05	14.310
577.38	14.366
577.71	14.398
578.05	14.391
578.38	14.342
578.71	14.364
579.05	14.409
579.38	14.419
579.71	14.426
580.05	14.429
580.38	14.463
580.71	14.416
581.05	14.383
581.38	14.359
581.71	14.354
582.05	14.394
582.38	14.398
582.71	14.387
583.04	14.372
583.38	14.375
583.71	14.416
584.04	14.426
584.38	14.449
584.71	14.498
585.04	14.555
585.37	14.554
585.71	14.552
586.04	14.545
586.37	14.564
586.70	14.613
587.04	14.605
587.37	14.646
587.70	14.648
588.03	14.641
588.37	14.638
588.70	14.641
589.03	14.662
589.36	14.680
589.69	14.706
590.03	14.745
590.36	14.702
590.69	14.686
591.02	14.643
591.35	14.648
591.69	14.675
592.02	14.689
592.35	14.673
592.68	14.679
593.01	14.647
593.35	14.628
593.68	14.598
594.01	14.650
594.34	14.667
594.67	14.688
595.00	14.662
595.34	14.650
595.67	14.646
596.00	14.653
596.33	14.662
596.66	14.681
596.99	14.734
597.32	14.763
597.65	14.731
597.99	14.752
598.32	14.775
598.65	14.793
598.98	14.824
599.31	14.830
599.64	14.792
599.97	14.757
600.30	14.791
600.63	14.772
600.96	14.749
601.30	14.780
601.63	14.747
601.96	14.713
602.29	14.745
602.62	14.721
602.95	14.715
603.28	14.727
603.61	14.780
603.94	14.764
604.27	14.776
604.60	14.802
604.93	14.821
605.26	14.889
605.59	14.931
605.92	14.911
606.25	14.950
606.58	14.965
606.91	14.965
607.24	14.922
607.57	14.956
607.90	14.945
608.23	14.939
608.56	14.917
608.89	14.895
609.22	14.865
609.55	14.878
609.88	14.867
610.21	14.854
610.54	14.903
610.87	14.917
611.20	14.876
611.53	14.848
611.86	14.860
612.19	14.838
612.52	14.811
612.85	14.811
613.18	14.822
613.51	14.866
613.84	14.880
614.17	14.845
614.49	14.878
614.82	14.909
615.15	14.939
615.48	14.957
615.81	14.961
616.14	15.015
616.47	15.040
616.80	15.031
617.13	14.999
617.46	15.018
617.78	15.020
618.11	14.980
618.44	14.993
618.77	15.015
619.10	14.978
619.43	15.002
619.76	14.976
620.09	14.969
620.41	14.969
620.74	14.887
621.07	14.877
621.40	14.852
621.73	14.910
622.06	14.852
622.38	14.831
622.71	14.841
623.04	14.812
623.37	14.772
623.70	14.742
624.02	14.752
624.35	14.824
624.68	14.836
625.01	14.893
625.34	14.862
625.66	14.901
625.99	14.923
626.32	14.941
626.65	14.962
626.98	15.002
627.30	14.992
627.63	15.009
627.96	14.983
628.29	14.935
628.61	14.939
628.94	14.924
629.27	14.886
629.60	14.904
629.92	14.836
630.25	14.825
630.58	14.807
630.91	14.872
631.23	14.866
631.56	14.861
631.89	14.894
632.21	14.863
632.54	14.802
632.87	14.781
633.19	14.707
633.52	14.718
633.85	14.736
634.18	14.723
634.50	14.714
634.83	14.698
635.16	14.710
635.48	14.661
635.81	14.641
636.14	14.783
636.46	14.827
636.79	14.828
637.11	14.813
637.44	14.796
637.77	14.798
638.09	14.734
638.42	14.722
638.75	14.658
639.07	14.677
639.40	14.702
639.73	14.611
640.05	14.568
640.38	14.625
640.70	14.647
641.03	14.678
641.36	14.676
641.68	14.719
642.01	14.689
642.33	14.707
642.66	14.667
642.98	14.671
643.31	14.612
643.64	14.646
643.96	14.577
644.29	14.605
644.61	14.568
644.94	14.626
645.26	14.568
645.59	14.603
645.91	14.601
646.24	14.673
646.56	14.681
646.89	14.703
647.22	14.659
647.54	14.707
647.87	14.700
648.19	14.715
648.52	14.659
648.84	14.657
649.17	14.555
