OOIBase32 Version 2.0.0.6 Data File
++++++++++++++++++++++++++++++++++++
Date: 01-20-2012, 23:19:27
User: Valued Ocean Optics Customer
Spectrometer Serial Number: USB2E2917
Spectrometer Channel: Master
Integration Time (msec): 3
Spectra Averaged: 10
Boxcar Smoothing: 5
Correct for Electrical Dark: Enabled
Time Normalized: Disabled
Dual-beam Reference: Disabled
Reference Channel: Master
Temperature: Not acquired
Spectrometer Type: S2000
ADC Type: USB2000
Number of Pixels in File: 2048
Graph Title: 
>>>>>Begin Spectral Data<<<<<
180.30	0.000
180.67	0.000
181.03	90.724
181.40	-837.052
181.77	-187.455
182.14	-1421.132
182.51	1.665
182.88	3.098
183.25	58.504
183.62	494.678
183.99	79.774
184.36	63.217
184.73	-45.216
185.10	142.553
185.46	489.355
185.83	49.484
186.20	83.633
186.57	133.055
186.94	190.838
187.31	177.810
187.68	15.812
188.05	-60.516
188.42	-93.197
188.78	-26.204
189.15	-25.056
189.52	0.392
189.89	10.735
190.26	7.355
190.63	16.922
191.00	1.155
191.37	6.913
191.73	8.955
192.10	19.684
192.47	29.034
192.84	26.676
193.21	34.893
193.58	20.264
193.94	18.773
194.31	10.560
194.68	-4.945
195.05	13.465
195.42	17.502
195.79	8.729
196.15	-0.741
196.52	17.024
196.89	34.926
197.26	42.800
197.63	76.035
198.00	74.928
198.36	107.090
198.73	-500.076
199.10	287.692
199.47	32.969
199.84	110.438
200.20	33.423
200.57	-32.019
200.94	-668.600
201.31	-279.424
201.68	-92.142
202.04	26.798
202.41	46.349
202.78	43.630
203.15	66.788
203.51	64.658
203.88	57.902
204.25	61.688
204.62	71.031
204.98	83.559
205.35	92.687
205.72	93.623
206.09	80.965
206.46	63.676
206.82	62.958
207.19	46.329
207.56	46.261
207.92	36.913
208.29	28.491
208.66	19.460
209.03	4.945
209.39	5.909
209.76	6.856
210.13	-2.415
210.50	8.512
210.86	11.067
211.23	13.421
211.60	11.793
211.96	3.543
212.33	14.125
212.70	19.934
213.07	25.601
213.43	37.289
213.80	23.678
214.17	16.030
214.53	19.217
214.90	14.892
215.27	16.462
215.63	23.159
216.00	37.702
216.37	37.342
216.74	39.161
217.10	37.765
217.47	42.041
217.84	48.809
218.20	53.049
218.57	46.266
218.94	45.831
219.30	41.855
219.67	33.721
220.04	23.169
220.40	22.013
220.77	16.509
221.13	15.391
221.50	6.964
221.87	9.617
222.23	7.354
222.60	11.841
222.97	17.345
223.33	27.939
223.70	29.412
224.07	26.798
224.43	27.309
224.80	23.360
225.16	20.083
225.53	16.770
225.90	14.289
226.26	14.313
226.63	13.790
226.99	13.611
227.36	11.486
227.73	12.464
228.09	14.101
228.46	12.867
228.82	13.447
229.19	14.011
229.56	15.039
229.92	17.013
230.29	16.050
230.65	15.472
231.02	15.492
231.38	15.123
231.75	14.161
232.12	12.803
232.48	13.797
232.85	12.919
233.21	12.540
233.58	13.327
233.94	11.766
234.31	11.526
234.68	11.935
235.04	9.512
235.41	10.837
235.77	10.766
236.14	11.907
236.50	10.958
236.87	12.059
237.23	11.854
237.60	9.610
237.96	8.231
238.33	8.187
238.69	7.941
239.06	7.995
239.42	7.956
239.79	6.742
240.15	6.034
240.52	6.281
240.88	6.167
241.25	6.474
241.61	6.766
241.98	7.399
242.34	7.887
242.71	7.648
243.07	7.811
243.44	7.486
243.80	8.060
244.17	8.684
244.53	8.923
244.90	8.971
245.26	9.071
245.63	9.072
245.99	8.882
246.36	8.614
246.72	8.551
247.09	8.592
247.45	8.758
247.81	8.908
248.18	8.725
248.54	8.483
248.91	8.505
249.27	8.248
249.64	8.090
250.00	7.917
250.36	8.087
250.73	8.392
251.09	8.614
251.46	8.616
251.82	8.030
252.19	7.363
252.55	7.299
252.91	7.205
253.28	7.072
253.64	8.033
254.01	8.283
254.37	8.657
254.73	8.661
255.10	8.119
255.46	7.866
255.83	7.745
256.19	7.980
256.55	7.904
256.92	7.850
257.28	7.700
257.65	7.308
258.01	7.121
258.37	6.835
258.74	6.736
259.10	6.739
259.46	6.732
259.83	6.956
260.19	7.026
260.55	6.965
260.92	6.683
261.28	6.555
261.64	6.616
262.01	6.756
262.37	7.108
262.73	7.327
263.10	7.713
263.46	7.648
263.82	7.827
264.19	7.327
264.55	7.064
264.91	7.353
265.28	7.691
265.64	7.599
266.00	7.623
266.37	7.218
266.73	7.012
267.09	6.561
267.46	6.713
267.82	6.573
268.18	7.049
268.54	7.231
268.91	7.185
269.27	7.092
269.63	7.098
270.00	6.907
270.36	6.977
270.72	6.841
271.08	7.154
271.45	7.189
271.81	7.081
272.17	7.004
272.53	7.132
272.90	7.176
273.26	6.900
273.62	6.781
273.98	7.063
274.35	7.338
274.71	7.542
275.07	7.101
275.43	6.802
275.80	6.726
276.16	6.361
276.52	6.252
276.88	5.807
277.25	6.246
277.61	6.135
277.97	6.107
278.33	5.879
278.69	5.876
279.06	6.014
279.42	6.535
279.78	6.544
280.14	6.726
280.50	6.554
280.87	6.729
281.23	6.654
281.59	7.025
281.95	6.657
282.31	6.403
282.68	6.419
283.04	6.770
283.40	6.611
283.76	6.741
284.12	6.613
284.48	6.636
284.85	6.819
285.21	6.938
285.57	6.541
285.93	6.705
286.29	6.853
286.65	6.953
287.02	6.783
287.38	6.769
287.74	6.606
288.10	6.682
288.46	6.797
288.82	6.667
289.18	6.581
289.54	6.679
289.91	6.578
290.27	6.739
290.63	6.708
290.99	6.794
291.35	6.828
291.71	6.849
292.07	6.880
292.43	6.983
292.79	6.949
293.16	6.958
293.52	7.232
293.88	7.243
294.24	7.220
294.60	7.183
294.96	7.133
295.32	7.083
295.68	7.220
296.04	7.154
296.40	6.975
296.76	6.961
297.12	7.019
297.49	6.982
297.85	6.960
298.21	7.297
298.57	7.398
298.93	7.515
299.29	7.654
299.65	7.893
300.01	8.241
300.37	8.595
300.73	8.730
301.09	8.942
301.45	9.135
301.81	9.523
302.17	9.592
302.53	9.913
302.89	10.310
303.25	10.556
303.61	10.786
303.97	10.997
304.33	11.238
304.69	11.563
305.05	11.580
305.41	11.774
305.77	11.941
306.13	11.986
306.49	12.056
306.85	11.984
307.21	11.981
307.57	12.012
307.93	11.990
308.29	11.956
308.65	12.237
309.01	12.453
309.37	12.608
309.73	12.773
310.09	12.790
310.45	12.804
310.81	13.053
311.17	13.295
311.53	13.356
311.89	13.526
312.25	13.678
312.61	13.622
312.96	13.590
313.32	13.634
313.68	13.817
314.04	14.051
314.40	14.108
314.76	14.042
315.12	13.891
315.48	13.890
315.84	13.854
316.20	13.917
316.56	13.961
316.92	14.150
317.27	14.136
317.63	13.933
317.99	13.916
318.35	13.876
318.71	13.907
319.07	14.112
319.43	14.125
319.79	14.084
320.15	13.958
320.50	13.959
320.86	13.952
321.22	13.926
321.58	13.930
321.94	13.891
322.30	14.076
322.66	13.869
323.01	13.725
323.37	13.556
323.73	13.564
324.09	13.623
324.45	13.518
324.81	13.400
325.17	13.432
325.52	13.473
325.88	13.408
326.24	13.283
326.60	13.402
326.96	13.373
327.31	13.568
327.67	13.661
328.03	13.538
328.39	13.570
328.75	13.498
329.11	13.503
329.46	13.378
329.82	13.165
330.18	13.186
330.54	13.118
330.90	13.093
331.25	13.022
331.61	13.075
331.97	13.228
332.33	13.159
332.68	13.153
333.04	13.111
333.40	13.074
333.76	13.203
334.11	13.219
334.47	13.130
334.83	13.152
335.19	13.124
335.54	12.913
335.90	12.801
336.26	12.818
336.62	12.922
336.97	12.725
337.33	12.756
337.69	12.747
338.05	12.669
338.40	12.758
338.76	12.685
339.12	12.665
339.48	12.655
339.83	12.581
340.19	12.567
340.55	12.429
340.90	12.457
341.26	12.399
341.62	12.376
341.97	12.291
342.33	12.103
342.69	12.142
343.04	12.183
343.40	12.178
343.76	12.059
344.12	12.033
344.47	11.835
344.83	11.741
345.19	11.745
345.54	11.642
345.90	11.625
346.26	11.714
346.61	11.555
346.97	11.410
347.32	11.294
347.68	11.310
348.04	11.229
348.39	11.340
348.75	11.383
349.11	11.414
349.46	11.424
349.82	11.338
350.18	11.312
350.53	11.362
350.89	11.369
351.24	11.422
351.60	11.357
351.96	11.322
352.31	11.296
352.67	11.349
353.02	11.219
353.38	11.189
353.74	11.254
354.09	11.275
354.45	11.259
354.80	11.246
355.16	11.188
355.52	11.219
355.87	11.257
356.23	11.238
356.58	11.157
356.94	11.128
357.29	11.146
357.65	11.085
358.00	10.955
358.36	10.868
358.72	10.829
359.07	10.823
359.43	10.764
359.78	10.737
360.14	10.714
360.49	10.737
360.85	10.697
361.20	10.704
361.56	10.646
361.91	10.651
362.27	10.663
362.62	10.622
362.98	10.559
363.33	10.590
363.69	10.500
364.04	10.467
364.40	10.433
364.75	10.441
365.11	10.367
365.46	10.368
365.82	10.333
366.17	10.330
366.53	10.351
366.88	10.359
367.24	10.309
367.59	10.317
367.95	10.360
368.30	10.298
368.66	10.220
369.01	10.164
369.37	10.127
369.72	10.168
370.08	10.125
370.43	10.087
370.78	10.107
371.14	10.108
371.49	10.032
371.85	9.981
372.20	9.962
372.56	9.951
372.91	9.897
373.26	9.882
373.62	9.769
373.97	9.757
374.33	9.682
374.68	9.636
375.03	9.584
375.39	9.625
375.74	9.569
376.10	9.496
376.45	9.491
376.80	9.553
377.16	9.477
377.51	9.479
377.87	9.369
378.22	9.333
378.57	9.346
378.93	9.326
379.28	9.291
379.63	9.263
379.99	9.280
380.34	9.269
380.70	9.171
381.05	9.177
381.40	9.157
381.76	9.248
382.11	9.277
382.46	9.201
382.82	9.187
383.17	9.171
383.52	9.157
383.88	9.096
384.23	9.042
384.58	9.056
384.94	9.076
385.29	9.028
385.64	8.945
385.99	8.855
386.35	8.819
386.70	8.804
387.05	8.713
387.41	8.665
387.76	8.714
388.11	8.713
388.47	8.664
388.82	8.614
389.17	8.629
389.52	8.618
389.88	8.612
390.23	8.648
390.58	8.576
390.93	8.589
391.29	8.576
391.64	8.543
391.99	8.494
392.34	8.419
392.70	8.338
393.05	8.263
393.40	8.219
393.75	8.207
394.11	8.130
394.46	8.155
394.81	8.089
395.16	8.048
395.52	7.976
395.87	7.920
396.22	7.948
396.57	7.948
396.92	7.897
397.28	7.907
397.63	7.875
397.98	7.816
398.33	7.750
398.68	7.753
399.04	7.768
399.39	7.699
399.74	7.646
400.09	7.626
400.44	7.608
400.80	7.578
401.15	7.536
401.50	7.503
401.85	7.471
402.20	7.455
402.55	7.406
402.90	7.343
403.26	7.349
403.61	7.359
403.96	7.319
404.31	7.331
404.66	7.343
405.01	7.312
405.36	7.281
405.72	7.274
406.07	7.240
406.42	7.254
406.77	7.231
407.12	7.214
407.47	7.193
407.82	7.160
408.17	7.130
408.53	7.101
408.88	7.091
409.23	7.107
409.58	7.102
409.93	7.121
410.28	7.068
410.63	7.046
410.98	7.021
411.33	7.022
411.68	6.979
412.03	6.936
412.38	6.910
412.73	6.850
413.09	6.820
413.44	6.814
413.79	6.796
414.14	6.792
414.49	6.782
414.84	6.791
415.19	6.756
415.54	6.796
415.89	6.767
416.24	6.766
416.59	6.769
416.94	6.744
417.29	6.731
417.64	6.722
417.99	6.726
418.34	6.728
418.69	6.701
419.04	6.698
419.39	6.663
419.74	6.669
420.09	6.644
420.44	6.638
420.79	6.637
421.14	6.616
421.49	6.586
421.84	6.553
422.19	6.525
422.54	6.532
422.89	6.528
423.24	6.533
423.59	6.510
423.94	6.521
424.29	6.528
424.64	6.520
424.99	6.535
425.34	6.531
425.68	6.555
426.03	6.586
426.38	6.559
426.73	6.578
427.08	6.578
427.43	6.586
427.78	6.595
428.13	6.588
428.48	6.592
428.83	6.583
429.18	6.619
429.53	6.610
429.87	6.592
430.22	6.611
430.57	6.618
430.92	6.632
431.27	6.623
431.62	6.603
431.97	6.600
432.32	6.593
432.67	6.581
433.01	6.573
433.36	6.604
433.71	6.621
434.06	6.603
434.41	6.591
434.76	6.562
435.11	6.557
435.45	6.540
435.80	6.543
436.15	6.554
436.50	6.578
436.85	6.565
437.20	6.573
437.54	6.569
437.89	6.596
438.24	6.595
438.59	6.615
438.94	6.631
439.29	6.666
439.63	6.671
439.98	6.682
440.33	6.648
440.68	6.664
441.03	6.643
441.37	6.628
441.72	6.608
442.07	6.621
442.42	6.645
442.76	6.668
443.11	6.669
443.46	6.656
443.81	6.650
444.16	6.690
444.50	6.704
444.85	6.701
445.20	6.715
445.55	6.730
445.89	6.722
446.24	6.712
446.59	6.702
446.94	6.702
447.28	6.718
447.63	6.743
447.98	6.724
448.32	6.708
448.67	6.710
449.02	6.718
449.37	6.711
449.71	6.727
450.06	6.718
450.41	6.738
450.75	6.739
451.10	6.741
451.45	6.696
451.79	6.708
452.14	6.706
452.49	6.711
452.84	6.693
453.18	6.692
453.53	6.698
453.88	6.712
454.22	6.709
454.57	6.725
454.92	6.731
455.26	6.756
455.61	6.761
455.95	6.749
456.30	6.745
456.65	6.778
456.99	6.780
457.34	6.779
457.69	6.771
458.03	6.765
458.38	6.772
458.73	6.770
459.07	6.781
459.42	6.798
459.76	6.831
460.11	6.862
460.46	6.868
460.80	6.876
461.15	6.862
461.49	6.869
461.84	6.878
462.19	6.869
462.53	6.897
462.88	6.924
463.22	6.923
463.57	6.926
463.91	6.928
464.26	6.933
464.61	6.952
464.95	6.957
465.30	6.999
465.64	7.018
465.99	7.027
466.33	7.027
466.68	7.035
467.02	7.033
467.37	7.037
467.71	7.033
468.06	7.021
468.41	7.037
468.75	7.057
469.10	7.063
469.44	7.059
469.79	7.066
470.13	7.056
470.48	7.014
470.82	7.008
471.17	7.011
471.51	7.021
471.86	7.042
472.20	7.036
472.55	7.065
472.89	7.038
473.23	7.032
473.58	7.022
473.92	7.017
474.27	7.021
474.61	7.024
474.96	6.998
475.30	6.982
475.65	6.981
475.99	6.959
476.34	6.916
476.68	6.908
477.02	6.908
477.37	6.911
477.71	6.912
478.06	6.921
478.40	6.900
478.75	6.901
479.09	6.901
479.43	6.895
479.78	6.918
480.12	6.938
480.47	6.951
480.81	6.975
481.15	6.993
481.50	7.011
481.84	7.024
482.19	7.054
482.53	7.078
482.87	7.102
483.22	7.124
483.56	7.128
483.90	7.126
484.25	7.117
484.59	7.107
484.94	7.100
485.28	7.092
485.62	7.085
485.97	7.068
486.31	7.046
486.65	7.030
487.00	7.016
487.34	7.014
487.68	7.021
488.03	7.020
488.37	7.013
488.71	7.004
489.06	7.007
489.40	7.003
489.74	6.993
490.09	7.000
490.43	7.003
490.77	7.008
491.11	7.014
491.46	7.031
491.80	7.054
492.14	7.069
492.49	7.092
492.83	7.096
493.17	7.101
493.51	7.128
493.86	7.127
494.20	7.126
494.54	7.126
494.88	7.118
495.23	7.118
495.57	7.137
495.91	7.175
496.25	7.183
496.60	7.206
496.94	7.253
497.28	7.285
497.62	7.327
497.97	7.371
498.31	7.381
498.65	7.412
498.99	7.427
499.33	7.459
499.68	7.474
500.02	7.506
500.36	7.542
500.70	7.550
501.04	7.567
501.39	7.591
501.73	7.596
502.07	7.659
502.41	7.702
502.75	7.751
503.09	7.796
503.44	7.805
503.78	7.850
504.12	7.877
504.46	7.916
504.80	7.955
505.14	7.981
505.49	8.014
505.83	8.022
506.17	8.054
506.51	8.075
506.85	8.079
507.19	8.125
507.53	8.159
507.87	8.167
508.22	8.199
508.56	8.230
508.90	8.262
509.24	8.286
509.58	8.330
509.92	8.353
510.26	8.394
510.60	8.448
510.94	8.491
511.28	8.518
511.63	8.574
511.97	8.600
512.31	8.632
512.65	8.685
512.99	8.722
513.33	8.729
513.67	8.733
514.01	8.727
514.35	8.725
514.69	8.734
515.03	8.734
515.37	8.734
515.71	8.767
516.05	8.769
516.39	8.758
516.73	8.774
517.07	8.784
517.41	8.822
517.75	8.838
518.09	8.842
518.43	8.848
518.77	8.871
519.11	8.878
519.45	8.849
519.79	8.861
520.13	8.874
520.47	8.856
520.81	8.842
521.15	8.810
521.49	8.823
521.83	8.826
522.17	8.792
522.51	8.760
522.85	8.773
523.19	8.784
523.53	8.772
523.87	8.793
524.21	8.808
524.55	8.822
524.89	8.835
525.23	8.841
525.57	8.851
525.91	8.876
526.25	8.900
526.58	8.906
526.92	8.908
527.26	8.919
527.60	8.917
527.94	8.931
528.28	8.949
528.62	8.947
528.96	8.926
529.30	8.913
529.64	8.890
529.97	8.867
530.31	8.840
530.65	8.829
530.99	8.788
531.33	8.752
531.67	8.701
532.01	8.674
532.35	8.652
532.68	8.645
533.02	8.621
533.36	8.607
533.70	8.586
534.04	8.582
534.38	8.545
534.71	8.540
535.05	8.525
535.39	8.523
535.73	8.483
536.07	8.467
536.41	8.435
536.74	8.417
537.08	8.415
537.42	8.372
537.76	8.347
538.10	8.343
538.43	8.324
538.77	8.331
539.11	8.303
539.45	8.295
539.79	8.280
540.12	8.296
540.46	8.305
540.80	8.293
541.14	8.312
541.47	8.313
541.81	8.309
542.15	8.307
542.49	8.295
542.82	8.306
543.16	8.296
543.50	8.302
543.84	8.277
544.17	8.250
544.51	8.223
544.85	8.198
545.18	8.170
545.52	8.174
545.86	8.173
546.20	8.155
546.53	8.158
546.87	8.148
547.21	8.134
547.54	8.141
547.88	8.114
548.22	8.128
548.55	8.135
548.89	8.141
549.23	8.126
549.56	8.144
549.90	8.126
550.24	8.112
550.57	8.113
550.91	8.106
551.25	8.070
551.58	8.101
551.92	8.119
552.26	8.126
552.59	8.146
552.93	8.132
553.27	8.119
553.60	8.120
553.94	8.117
554.27	8.114
554.61	8.122
554.95	8.172
555.28	8.164
555.62	8.146
555.95	8.128
556.29	8.113
556.63	8.151
556.96	8.146
557.30	8.160
557.63	8.165
557.97	8.153
558.31	8.131
558.64	8.093
558.98	8.141
559.31	8.132
559.65	8.163
559.98	8.185
560.32	8.169
560.65	8.162
560.99	8.128
561.33	8.119
561.66	8.126
562.00	8.124
562.33	8.106
562.67	8.082
563.00	8.111
563.34	8.097
563.67	8.059
564.01	8.067
564.34	8.092
564.68	8.135
565.01	8.140
565.35	8.150
565.68	8.195
566.02	8.198
566.35	8.186
566.69	8.169
567.02	8.157
567.36	8.184
567.69	8.165
568.03	8.164
568.36	8.173
568.69	8.182
569.03	8.187
569.36	8.138
569.70	8.178
570.03	8.187
570.37	8.185
570.70	8.206
571.04	8.222
571.37	8.254
571.70	8.237
572.04	8.238
572.37	8.242
572.71	8.263
573.04	8.294
573.37	8.276
573.71	8.280
574.04	8.313
574.38	8.341
574.71	8.306
575.04	8.289
575.38	8.315
575.71	8.303
576.05	8.311
576.38	8.326
576.71	8.309
577.05	8.339
577.38	8.353
577.71	8.325
578.05	8.304
578.38	8.353
578.71	8.370
579.05	8.388
579.38	8.421
579.71	8.439
580.05	8.414
580.38	8.473
580.71	8.477
581.05	8.467
581.38	8.507
581.71	8.545
582.05	8.568
582.38	8.561
582.71	8.594
583.04	8.601
583.38	8.628
583.71	8.693
584.04	8.722
584.38	8.756
584.71	8.810
585.04	8.864
585.37	8.882
585.71	8.895
586.04	8.973
586.37	8.988
586.70	9.037
587.04	9.064
587.37	9.085
587.70	9.113
588.03	9.132
588.37	9.164
588.70	9.185
589.03	9.216
589.36	9.278
589.69	9.293
590.03	9.329
590.36	9.355
590.69	9.377
591.02	9.389
591.35	9.377
591.69	9.423
592.02	9.495
592.35	9.529
592.68	9.566
593.01	9.548
593.35	9.592
593.68	9.608
594.01	9.640
594.34	9.687
594.67	9.732
595.00	9.791
595.34	9.834
595.67	9.855
596.00	9.876
596.33	9.910
596.66	9.961
596.99	10.009
597.32	10.029
597.65	10.057
597.99	10.082
598.32	10.109
598.65	10.160
598.98	10.203
599.31	10.211
599.64	10.228
599.97	10.272
600.30	10.297
600.63	10.304
600.96	10.342
601.30	10.409
601.63	10.458
601.96	10.498
602.29	10.542
602.62	10.553
602.95	10.619
603.28	10.663
603.61	10.686
603.94	10.762
604.27	10.829
604.60	10.892
604.93	10.892
605.26	10.945
605.59	10.998
605.92	11.001
606.25	11.039
606.58	11.050
606.91	11.068
607.24	11.106
607.57	11.136
607.90	11.164
608.23	11.182
608.56	11.218
608.89	11.227
609.22	11.240
609.55	11.288
609.88	11.317
610.21	11.337
610.54	11.378
610.87	11.374
611.20	11.353
611.53	11.307
611.86	11.339
612.19	11.404
612.52	11.368
612.85	11.372
613.18	11.389
613.51	11.414
613.84	11.382
614.17	11.394
614.49	11.405
614.82	11.430
615.15	11.439
615.48	11.447
615.81	11.401
616.14	11.449
616.47	11.458
616.80	11.437
617.13	11.455
617.46	11.499
617.78	11.518
618.11	11.517
618.44	11.489
618.77	11.516
619.10	11.470
619.43	11.497
619.76	11.513
620.09	11.528
620.41	11.516
620.74	11.471
621.07	11.438
621.40	11.407
621.73	11.463
622.06	11.480
622.38	11.454
622.71	11.479
623.04	11.419
623.37	11.401
623.70	11.380
624.02	11.437
624.35	11.481
624.68	11.552
625.01	11.546
625.34	11.504
625.66	11.502
625.99	11.522
626.32	11.565
626.65	11.641
626.98	11.677
627.30	11.692
627.63	11.675
627.96	11.636
628.29	11.584
628.61	11.599
628.94	11.577
629.27	11.594
629.60	11.618
629.92	11.608
630.25	11.544
630.58	11.519
630.91	11.533
631.23	11.514
631.56	11.533
631.89	11.526
632.21	11.539
632.54	11.552
632.87	11.489
633.19	11.475
633.52	11.421
633.85	11.387
634.18	11.377
634.50	11.358
634.83	11.350
635.16	11.376
635.48	11.390
635.81	11.425
636.14	11.511
636.46	11.581
636.79	11.529
637.11	11.550
637.44	11.604
637.77	11.587
638.09	11.573
638.42	11.554
638.75	11.501
639.07	11.536
639.40	11.480
639.73	11.402
640.05	11.383
640.38	11.478
640.70	11.407
641.03	11.403
641.36	11.408
641.68	11.432
642.01	11.484
642.33	11.497
642.66	11.411
642.98	11.398
643.31	11.408
643.64	11.456
643.96	11.389
644.29	11.480
644.61	11.464
644.94	11.511
645.26	11.500
645.59	11.455
645.91	11.411
646.24	11.452
646.56	11.519
646.89	11.510
647.22	11.430
647.54	11.479
647.87	11.504
648.19	11.526
648.52	11.485
648.84	11.438
649.17	11.453
649.49	11.567
649.82	11.505
650.14	11.389
650.47	11.353
650.79	11.424
651.11	11.359
