OOIBase32 Version 2.0.0.6 Data File
++++++++++++++++++++++++++++++++++++
Date: 01-18-2012, 22:53:06
User: Valued Ocean Optics Customer
Spectrometer Serial Number: USB2E2917
Spectrometer Channel: Master
Integration Time (msec): 5
Spectra Averaged: 10
Boxcar Smoothing: 5
Correct for Electrical Dark: Enabled
Time Normalized: Disabled
Dual-beam Reference: Disabled
Reference Channel: Master
Temperature: Not acquired
Spectrometer Type: S2000
ADC Type: USB2000
Number of Pixels in File: 2048
Graph Title: 
>>>>>Begin Spectral Data<<<<<
180.30	0.000
180.67	0.000
181.03	-1817.626
181.40	41.042
181.77	126.940
182.14	-527.847
182.51	56.321
182.88	34.836
183.25	1.367
183.62	258.967
183.99	85.875
184.36	-33.532
184.73	162.232
185.10	167.905
185.46	-207.739
185.83	94.916
186.20	131.154
186.57	-246.193
186.94	-49.524
187.31	47.217
187.68	82.090
188.05	20.191
188.42	61.598
188.78	50.556
189.15	50.533
189.52	39.166
189.89	45.061
190.26	42.867
190.63	29.464
191.00	29.303
191.37	45.772
191.73	56.260
192.10	45.255
192.47	22.994
192.84	33.313
193.21	41.389
193.58	37.761
193.94	17.281
194.31	6.497
194.68	13.143
195.05	13.954
195.42	0.583
195.79	4.782
196.15	12.931
196.52	12.153
196.89	4.612
197.26	-8.524
197.63	-4.297
198.00	-2.832
198.36	-5.213
198.73	-10.853
199.10	-14.366
199.47	0.605
199.84	-5.864
200.20	-10.277
200.57	-11.351
200.94	0.537
201.31	11.635
201.68	20.061
202.04	15.324
202.41	13.672
202.78	13.901
203.15	13.939
203.51	15.467
203.88	26.829
204.25	29.195
204.62	26.316
204.98	23.561
205.35	15.315
205.72	13.584
206.09	27.420
206.46	20.349
206.82	22.177
207.19	24.808
207.56	22.018
207.92	23.252
208.29	26.495
208.66	22.481
209.03	34.776
209.39	27.825
209.76	23.832
210.13	15.914
210.50	39.381
210.86	40.545
211.23	55.817
211.60	47.508
211.96	32.199
212.33	17.786
212.70	22.796
213.07	15.176
213.43	29.011
213.80	36.950
214.17	45.769
214.53	38.917
214.90	37.144
215.27	26.520
215.63	22.305
216.00	22.735
216.37	29.780
216.74	29.142
217.10	26.131
217.47	12.661
217.84	-3.314
218.20	-21.124
218.57	-27.302
218.94	-25.662
219.30	-27.001
219.67	-28.150
220.04	-23.139
220.40	-39.076
220.77	-44.910
221.13	-38.041
221.50	-40.403
221.87	-37.642
222.23	-26.194
222.60	-20.304
222.97	-16.207
223.33	-13.453
223.70	-2.628
224.07	-4.468
224.43	3.319
224.80	3.617
225.16	4.603
225.53	7.663
225.90	6.512
226.26	4.210
226.63	3.183
226.99	3.661
227.36	2.769
227.73	1.999
228.09	1.856
228.46	1.981
228.82	2.488
229.19	1.013
229.56	0.810
229.92	2.123
230.29	3.160
230.65	3.160
231.02	2.115
231.38	2.760
231.75	-0.496
232.12	0.270
232.48	-0.018
232.85	-0.018
233.21	1.793
233.58	1.892
233.94	2.361
234.31	1.981
234.68	2.146
235.04	1.640
235.41	1.131
235.77	3.009
236.14	1.256
236.50	0.331
236.87	-0.989
237.23	-0.394
237.60	-0.153
237.96	-2.345
238.33	-1.791
238.69	-0.443
239.06	-0.458
239.42	0.038
239.79	0.122
240.15	1.494
240.52	2.629
240.88	3.656
241.25	3.627
241.61	3.718
241.98	4.449
242.34	4.043
242.71	3.094
243.07	3.012
243.44	2.956
243.80	3.393
244.17	3.086
244.53	2.746
244.90	2.326
245.26	2.106
245.63	2.145
245.99	1.902
246.36	2.187
246.72	2.553
247.09	2.912
247.45	2.568
247.81	2.002
248.18	1.984
248.54	2.355
248.91	2.594
249.27	2.536
249.64	2.256
250.00	2.162
250.36	2.046
250.73	1.707
251.09	0.974
251.46	1.605
251.82	1.775
252.19	1.689
252.55	0.844
252.91	0.760
253.28	0.611
253.64	0.776
254.01	1.277
254.37	1.375
254.73	1.756
255.10	2.051
255.46	1.792
255.83	2.019
256.19	1.934
256.55	2.125
256.92	1.789
257.28	2.285
257.65	2.366
258.01	2.474
258.37	2.459
258.74	2.800
259.10	3.045
259.46	3.358
259.83	3.322
260.19	3.699
260.55	3.630
260.92	3.889
261.28	3.843
261.64	4.036
262.01	3.729
262.37	3.798
262.73	3.209
263.10	3.602
263.46	3.209
263.82	3.169
264.19	2.738
264.55	2.543
264.91	2.568
265.28	2.246
265.64	2.285
266.00	2.833
266.37	2.728
266.73	2.748
267.09	2.320
267.46	1.908
267.82	1.975
268.18	2.020
268.54	2.236
268.91	2.430
269.27	2.363
269.63	2.116
270.00	1.598
270.36	1.655
270.72	1.421
271.08	1.267
271.45	1.302
271.81	1.349
272.17	1.165
272.53	1.208
272.90	0.779
273.26	1.037
273.62	0.719
273.98	1.457
274.35	1.513
274.71	1.481
275.07	1.023
275.43	0.895
275.80	1.037
276.16	1.763
276.52	1.890
276.88	2.093
277.25	2.103
277.61	2.472
277.97	2.020
278.33	1.742
278.69	1.941
279.06	2.584
279.42	3.082
279.78	3.091
280.14	2.390
280.50	2.362
280.87	2.389
281.23	2.203
281.59	2.222
281.95	2.061
282.31	2.172
282.68	2.543
283.04	2.415
283.40	2.277
283.76	2.136
284.12	2.048
284.48	1.721
284.85	1.620
285.21	1.505
285.57	1.485
285.93	1.623
286.29	1.597
286.65	1.273
287.02	1.268
287.38	1.531
287.74	1.617
288.10	1.695
288.46	1.812
288.82	2.086
289.18	2.476
289.54	2.625
289.91	2.649
290.27	2.695
290.63	2.858
290.99	3.069
291.35	3.189
291.71	3.263
292.07	3.417
292.43	3.548
292.79	3.408
293.16	3.052
293.52	2.956
293.88	2.849
294.24	2.979
294.60	3.171
294.96	3.313
295.32	3.103
295.68	3.168
296.04	3.405
296.40	3.561
296.76	3.595
297.12	3.757
297.49	3.878
297.85	4.107
298.21	4.047
298.57	4.165
298.93	4.083
299.29	4.172
299.65	4.332
300.01	4.456
300.37	4.472
300.73	4.510
301.09	4.626
301.45	4.743
301.81	4.778
302.17	4.976
302.53	4.632
302.89	4.724
303.25	4.702
303.61	4.671
303.97	4.656
304.33	4.827
304.69	4.928
305.05	5.037
305.41	5.107
305.77	5.024
306.13	5.008
306.49	5.142
306.85	5.100
307.21	5.219
307.57	5.057
307.93	5.119
308.29	5.131
308.65	5.147
309.01	5.085
309.37	5.048
309.73	5.106
310.09	5.141
310.45	5.236
310.81	5.258
311.17	5.289
311.53	5.432
311.89	5.361
312.25	5.305
312.61	5.304
312.96	5.514
313.32	5.468
313.68	5.504
314.04	5.497
314.40	5.388
314.76	5.425
315.12	5.356
315.48	5.307
315.84	5.277
316.20	5.122
316.56	5.248
316.92	5.147
317.27	5.351
317.63	5.451
317.99	5.586
318.35	5.672
318.71	5.685
319.07	5.750
319.43	5.799
319.79	5.827
320.15	5.967
320.50	5.820
320.86	5.641
321.22	5.527
321.58	5.395
321.94	5.243
322.30	5.248
322.66	5.240
323.01	5.297
323.37	5.335
323.73	5.350
324.09	5.275
324.45	5.476
324.81	5.662
325.17	5.664
325.52	5.755
325.88	5.709
326.24	5.700
326.60	5.737
326.96	5.697
327.31	5.611
327.67	5.462
328.03	5.462
328.39	5.387
328.75	5.431
329.11	5.507
329.46	5.552
329.82	5.646
330.18	5.723
330.54	5.675
330.90	5.708
331.25	5.639
331.61	5.753
331.97	5.731
332.33	5.690
332.68	5.418
333.04	5.297
333.40	5.265
333.76	5.195
334.11	5.158
334.47	5.123
334.83	5.021
335.19	5.105
335.54	5.084
335.90	5.089
336.26	5.050
336.62	5.075
336.97	5.015
337.33	4.924
337.69	4.990
338.05	4.999
338.40	5.002
338.76	4.980
339.12	4.968
339.48	4.916
339.83	4.923
340.19	5.026
340.55	4.963
340.90	5.028
341.26	4.956
341.62	4.902
341.97	4.854
342.33	4.751
342.69	4.629
343.04	4.601
343.40	4.608
343.76	4.693
344.12	4.747
344.47	4.960
344.83	4.864
345.19	4.898
345.54	4.856
345.90	4.803
346.26	4.753
346.61	4.897
346.97	4.840
347.32	4.866
347.68	4.671
348.04	4.436
348.39	4.315
348.75	4.349
349.11	4.369
349.46	4.337
349.82	4.274
350.18	4.237
350.53	4.219
350.89	4.279
351.24	4.228
351.60	4.314
351.96	4.318
352.31	4.310
352.67	4.314
353.02	4.355
353.38	4.467
353.74	4.529
354.09	4.629
354.45	4.561
354.80	4.529
355.16	4.537
355.52	4.593
355.87	4.668
356.23	4.621
356.58	4.604
356.94	4.546
357.29	4.433
357.65	4.445
358.00	4.486
358.36	4.501
358.72	4.552
359.07	4.540
359.43	4.449
359.78	4.371
360.14	4.356
360.49	4.419
360.85	4.373
361.20	4.390
361.56	4.404
361.91	4.317
362.27	4.294
362.62	4.269
362.98	4.331
363.33	4.394
363.69	4.421
364.04	4.406
364.40	4.350
364.75	4.363
365.11	4.380
365.46	4.301
365.82	4.311
366.17	4.309
366.53	4.236
366.88	4.164
367.24	4.092
367.59	4.036
367.95	4.067
368.30	4.067
368.66	4.021
369.01	3.982
369.37	4.022
369.72	4.043
370.08	4.074
370.43	4.115
370.78	4.125
371.14	4.178
371.49	4.212
371.85	4.185
372.20	4.140
372.56	4.133
372.91	4.157
373.26	4.081
373.62	4.044
373.97	3.984
374.33	3.873
374.68	3.810
375.03	3.725
375.39	3.698
375.74	3.645
376.10	3.608
376.45	3.601
376.80	3.567
377.16	3.583
377.51	3.584
377.87	3.527
378.22	3.626
378.57	3.655
378.93	3.668
379.28	3.682
379.63	3.762
379.99	3.788
380.34	3.811
380.70	3.812
381.05	3.789
381.40	3.791
381.76	3.866
382.11	3.858
382.46	3.822
382.82	3.865
383.17	3.874
383.52	3.823
383.88	3.829
384.23	3.910
384.58	3.887
384.94	3.880
385.29	3.858
385.64	3.811
385.99	3.744
386.35	3.790
386.70	3.773
387.05	3.725
387.41	3.734
387.76	3.725
388.11	3.647
388.47	3.673
388.82	3.655
389.17	3.725
389.52	3.759
389.88	3.805
390.23	3.763
390.58	3.746
390.93	3.712
391.29	3.720
391.64	3.688
391.99	3.653
392.34	3.613
392.70	3.647
393.05	3.628
393.40	3.606
393.75	3.560
394.11	3.602
394.46	3.609
394.81	3.684
395.16	3.629
395.52	3.607
395.87	3.590
396.22	3.573
396.57	3.546
396.92	3.467
397.28	3.402
397.63	3.417
397.98	3.393
398.33	3.381
398.68	3.286
399.04	3.308
399.39	3.303
399.74	3.304
400.09	3.316
400.44	3.282
400.80	3.267
401.15	3.267
401.50	3.217
401.85	3.178
402.20	3.142
402.55	3.177
402.90	3.130
403.26	3.137
403.61	3.139
403.96	3.111
404.31	3.128
404.66	3.154
405.01	3.183
405.36	3.180
405.72	3.167
406.07	3.184
406.42	3.172
406.77	3.162
407.12	3.141
407.47	3.126
407.82	3.137
408.17	3.147
408.53	3.139
408.88	3.089
409.23	3.105
409.58	3.117
409.93	3.043
410.28	3.023
410.63	3.050
410.98	3.084
411.33	3.090
411.68	3.060
412.03	3.017
412.38	3.019
412.73	3.067
413.09	3.064
413.44	3.058
413.79	3.103
414.14	3.108
414.49	3.116
414.84	3.085
415.19	3.095
415.54	3.100
415.89	3.131
416.24	3.141
416.59	3.141
416.94	3.155
417.29	3.179
417.64	3.181
417.99	3.174
418.34	3.184
418.69	3.195
419.04	3.195
419.39	3.236
419.74	3.233
420.09	3.216
420.44	3.241
420.79	3.236
421.14	3.215
421.49	3.197
421.84	3.204
422.19	3.198
422.54	3.196
422.89	3.197
423.24	3.159
423.59	3.147
423.94	3.148
424.29	3.123
424.64	3.103
424.99	3.090
425.34	3.116
425.68	3.142
426.03	3.124
426.38	3.123
426.73	3.098
427.08	3.091
427.43	3.088
427.78	3.079
428.13	3.033
428.48	3.073
428.83	3.084
429.18	3.086
429.53	3.062
429.87	3.082
430.22	3.057
430.57	3.074
430.92	3.080
431.27	3.083
431.62	3.087
431.97	3.103
432.32	3.072
432.67	3.055
433.01	3.031
433.36	3.010
433.71	2.961
434.06	2.954
434.41	2.939
434.76	2.934
435.11	2.927
435.45	2.943
435.80	2.932
436.15	2.917
436.50	2.937
436.85	2.941
437.20	2.949
437.54	2.982
437.89	2.979
438.24	2.975
438.59	2.953
438.94	2.958
439.29	2.917
439.63	2.904
439.98	2.905
440.33	2.887
440.68	2.881
441.03	2.875
441.37	2.862
441.72	2.882
442.07	2.908
442.42	2.921
442.76	2.914
443.11	2.949
443.46	2.952
443.81	2.954
444.16	2.957
444.50	2.953
444.85	2.953
445.20	2.946
445.55	2.921
445.89	2.898
446.24	2.908
446.59	2.893
446.94	2.845
447.28	2.849
447.63	2.819
447.98	2.792
448.32	2.765
448.67	2.734
449.02	2.717
449.37	2.735
449.71	2.728
450.06	2.669
450.41	2.664
450.75	2.664
451.10	2.668
451.45	2.688
451.79	2.681
452.14	2.691
452.49	2.672
452.84	2.665
453.18	2.621
453.53	2.610
453.88	2.623
454.22	2.621
454.57	2.623
454.92	2.618
455.26	2.635
455.61	2.656
455.95	2.671
456.30	2.714
456.65	2.724
456.99	2.763
457.34	2.775
457.69	2.788
458.03	2.782
458.38	2.786
458.73	2.773
459.07	2.761
459.42	2.753
459.76	2.748
460.11	2.725
460.46	2.715
460.80	2.684
461.15	2.661
461.49	2.631
461.84	2.623
462.19	2.612
462.53	2.606
462.88	2.582
463.22	2.534
463.57	2.516
463.91	2.516
464.26	2.502
464.61	2.506
464.95	2.518
465.30	2.547
465.64	2.543
465.99	2.543
466.33	2.536
466.68	2.516
467.02	2.531
467.37	2.514
467.71	2.494
468.06	2.494
468.41	2.486
468.75	2.441
469.10	2.392
469.44	2.361
469.79	2.329
470.13	2.314
470.48	2.354
470.82	2.360
471.17	2.329
471.51	2.327
471.86	2.308
472.20	2.293
472.55	2.285
472.89	2.286
473.23	2.313
473.58	2.333
473.92	2.322
474.27	2.280
474.61	2.265
474.96	2.274
475.30	2.262
475.65	2.263
475.99	2.244
476.34	2.254
476.68	2.240
477.02	2.227
477.37	2.223
477.71	2.222
478.06	2.239
478.40	2.276
478.75	2.332
479.09	2.376
479.43	2.418
479.78	2.486
480.12	2.543
480.47	2.598
480.81	2.646
481.15	2.688
481.50	2.735
481.84	2.776
482.19	2.802
482.53	2.826
482.87	2.848
483.22	2.873
483.56	2.872
483.90	2.866
484.25	2.862
484.59	2.850
484.94	2.829
485.28	2.804
485.62	2.768
485.97	2.731
486.31	2.701
486.65	2.666
487.00	2.630
487.34	2.619
487.68	2.598
488.03	2.581
488.37	2.569
488.71	2.552
489.06	2.528
489.40	2.532
489.74	2.522
490.09	2.498
490.43	2.482
490.77	2.463
491.11	2.422
491.46	2.392
491.80	2.352
492.14	2.310
492.49	2.281
492.83	2.240
493.17	2.186
493.51	2.151
493.86	2.101
494.20	2.062
494.54	2.036
494.88	2.014
495.23	2.008
495.57	2.013
495.91	2.014
496.25	2.007
496.60	2.001
496.94	1.979
497.28	1.975
497.62	1.965
497.97	1.960
498.31	1.961
498.65	1.958
498.99	1.948
499.33	1.944
499.68	1.917
500.02	1.893
500.36	1.911
500.70	1.915
501.04	1.903
501.39	1.924
501.73	1.926
502.07	1.906
502.41	1.902
502.75	1.874
503.09	1.864
503.44	1.880
503.78	1.885
504.12	1.888
504.46	1.893
504.80	1.900
505.14	1.915
505.49	1.907
505.83	1.899
506.17	1.921
506.51	1.937
506.85	1.929
507.19	1.927
507.53	1.947
507.87	1.948
508.22	1.948
508.56	1.943
508.90	1.926
509.24	1.950
509.58	1.938
509.92	1.922
510.26	1.909
510.60	1.914
510.94	1.898
511.28	1.875
511.63	1.851
511.97	1.847
512.31	1.826
512.65	1.813
512.99	1.799
513.33	1.822
513.67	1.807
514.01	1.838
514.35	1.851
514.69	1.877
515.03	1.909
515.37	1.942
515.71	1.967
516.05	1.996
516.39	2.015
516.73	2.026
517.07	2.036
517.41	2.057
517.75	2.054
518.09	2.053
518.43	2.033
518.77	2.005
519.11	1.978
519.45	1.965
519.79	1.939
520.13	1.907
520.47	1.878
520.81	1.856
521.15	1.849
521.49	1.854
521.83	1.840
522.17	1.864
522.51	1.887
522.85	1.935
523.19	1.962
523.53	2.016
523.87	2.082
524.21	2.155
524.55	2.222
524.89	2.263
525.23	2.292
525.57	2.337
525.91	2.382
526.25	2.403
526.58	2.415
526.92	2.440
527.26	2.461
527.60	2.472
527.94	2.457
528.28	2.441
528.62	2.430
528.96	2.419
529.30	2.409
529.64	2.380
529.97	2.367
530.31	2.349
530.65	2.318
530.99	2.296
531.33	2.273
531.67	2.265
532.01	2.246
532.35	2.237
532.68	2.233
533.02	2.216
533.36	2.200
533.70	2.171
534.04	2.141
534.38	2.103
534.71	2.064
535.05	2.042
535.39	2.019
535.73	1.996
536.07	1.960
536.41	1.964
536.74	1.976
537.08	1.972
537.42	2.011
537.76	2.051
538.10	2.093
538.43	2.117
538.77	2.151
539.11	2.186
539.45	2.229
539.79	2.271
540.12	2.271
540.46	2.277
540.80	2.299
541.14	2.298
541.47	2.283
541.81	2.273
542.15	2.251
542.49	2.228
542.82	2.186
543.16	2.146
543.50	2.101
543.84	2.083
544.17	2.045
544.51	2.007
544.85	1.975
545.18	1.950
545.52	1.922
545.86	1.905
546.20	1.869
546.53	1.856
546.87	1.830
547.21	1.793
547.54	1.746
547.88	1.711
548.22	1.669
548.55	1.642
548.89	1.643
549.23	1.637
549.56	1.654
549.90	1.656
550.24	1.657
550.57	1.657
550.91	1.670
551.25	1.666
551.58	1.669
551.92	1.701
552.26	1.721
552.59	1.688
552.93	1.690
553.27	1.666
553.60	1.636
553.94	1.615
554.27	1.591
554.61	1.594
554.95	1.616
555.28	1.617
555.62	1.580
555.95	1.567
556.29	1.576
556.63	1.561
556.96	1.563
557.30	1.592
557.63	1.615
557.97	1.630
558.31	1.623
558.64	1.610
558.98	1.599
559.31	1.647
559.65	1.637
559.98	1.673
560.32	1.672
560.65	1.684
560.99	1.691
561.33	1.705
561.66	1.715
562.00	1.747
562.33	1.765
562.67	1.775
563.00	1.757
563.34	1.765
563.67	1.768
564.01	1.791
564.34	1.792
564.68	1.795
565.01	1.804
565.35	1.803
565.68	1.792
566.02	1.792
566.35	1.800
566.69	1.832
567.02	1.860
567.36	1.854
567.69	1.848
568.03	1.884
568.36	1.893
568.69	1.894
569.03	1.930
569.36	1.937
569.70	1.959
570.03	1.984
570.37	1.985
570.70	1.984
571.04	1.991
571.37	2.016
571.70	2.000
572.04	2.004
572.37	1.976
572.71	1.961
573.04	1.960
573.37	1.949
573.71	1.941
574.04	1.928
574.38	1.911
574.71	1.880
575.04	1.854
575.38	1.832
575.71	1.805
576.05	1.774
576.38	1.732
576.71	1.709
577.05	1.663
577.38	1.614
577.71	1.563
578.05	1.544
578.38	1.540
578.71	1.513
579.05	1.486
579.38	1.471
579.71	1.486
580.05	1.471
580.38	1.442
580.71	1.445
581.05	1.433
581.38	1.428
581.71	1.419
582.05	1.409
582.38	1.394
582.71	1.415
583.04	1.411
583.38	1.414
583.71	1.437
584.04	1.486
584.38	1.497
584.71	1.521
585.04	1.558
585.37	1.576
585.71	1.595
586.04	1.618
586.37	1.623
586.70	1.625
587.04	1.667
587.37	1.683
587.70	1.690
588.03	1.698
588.37	1.715
588.70	1.708
589.03	1.720
589.36	1.731
589.69	1.734
590.03	1.736
590.36	1.754
590.69	1.747
591.02	1.716
591.35	1.681
591.69	1.687
592.02	1.696
592.35	1.682
592.68	1.655
593.01	1.659
593.35	1.677
593.68	1.674
594.01	1.690
594.34	1.677
594.67	1.710
595.00	1.723
595.34	1.726
595.67	1.690
596.00	1.690
596.33	1.698
596.66	1.687
596.99	1.650
597.32	1.617
597.65	1.595
597.99	1.577
598.32	1.561
598.65	1.527
598.98	1.514
599.31	1.519
599.64	1.507
599.97	1.508
600.30	1.513
600.63	1.534
600.96	1.549
601.30	1.572
601.63	1.588
601.96	1.596
602.29	1.632
602.62	1.639
602.95	1.644
603.28	1.659
603.61	1.672
603.94	1.686
604.27	1.693
604.60	1.692
604.93	1.673
605.26	1.674
605.59	1.664
605.92	1.657
606.25	1.635
606.58	1.661
606.91	1.648
607.24	1.625
607.57	1.573
607.90	1.582
608.23	1.605
608.56	1.607
608.89	1.600
609.22	1.593
609.55	1.572
609.88	1.571
610.21	1.533
610.54	1.515
610.87	1.488
611.20	1.536
611.53	1.486
611.86	1.436
612.19	1.375
612.52	1.359
612.85	1.298
613.18	1.253
613.51	1.229
613.84	1.219
614.17	1.227
614.49	1.234
614.82	1.199
615.15	1.203
615.48	1.209
615.81	1.247
616.14	1.229
616.47	1.250
616.80	1.277
617.13	1.284
617.46	1.312
617.78	1.334
618.11	1.334
618.44	1.296
618.77	1.321
619.10	1.319
619.43	1.326
619.76	1.359
620.09	1.371
620.41	1.380
620.74	1.415
621.07	1.417
621.40	1.388
621.73	1.391
622.06	1.437
622.38	1.425
622.71	1.458
623.04	1.522
623.37	1.491
623.70	1.509
624.02	1.507
624.35	1.484
624.68	1.501
625.01	1.535
625.34	1.546
625.66	1.561
625.99	1.575
626.32	1.535
626.65	1.509
626.98	1.532
627.30	1.557
627.63	1.556
627.96	1.598
628.29	1.569
628.61	1.548
628.94	1.561
629.27	1.542
629.60	1.536
629.92	1.554
630.25	1.504
630.58	1.473
630.91	1.446
631.23	1.462
631.56	1.404
631.89	1.409
632.21	1.376
632.54	1.320
632.87	1.330
633.19	1.331
633.52	1.336
633.85	1.315
634.18	1.273
634.50	1.260
634.83	1.222
635.16	1.193
635.48	1.149
635.81	1.144
636.14	1.176
636.46	1.153
636.79	1.128
637.11	1.097
637.44	1.100
637.77	1.129
638.09	1.111
638.42	1.121
638.75	1.158
639.07	1.176
639.40	1.217
639.73	1.184
640.05	1.153
640.38	1.089
640.70	1.086
641.03	1.095
641.36	1.095
641.68	1.081
642.01	1.096
642.33	1.069
642.66	1.050
642.98	1.026
643.31	1.034
643.64	1.046
643.96	1.092
644.29	1.084
644.61	1.076
644.94	1.063
645.26	1.093
645.59	1.046
645.91	1.072
646.24	1.120
646.56	1.132
646.89	1.127
647.22	1.109
647.54	1.121
647.87	1.132
648.19	1.113
648.52	1.089
648.84	1.079
649.17	1.073
649.49	1.051
649.82	1.007
650.14	0.998
650.47	1.026
650.79	1.019
651.11	1.008
651.44	1.024
651.76	1.019
652.09	1.061
652.41	1.030
652.74	1.019
653.06	1.047
653.39	1.017
653.71	1.003
654.04	0.976
654.36	0.992
654.68	0.970
655.01	0.963
655.33	0.986
655.66	0.948
655.98	0.909
656.30	0.906
656.63	0.849
656.95	0.831
657.28	0.836
657.60	0.826
657.92	0.795
658.25	0.799
658.57	0.707
658.90	0.681
659.22	0.674
659.54	0.700
659.87	0.681
