OOIBase32 Version 2.0.0.6 Data File
++++++++++++++++++++++++++++++++++++
Date: 01-19-2012, 17:19:47
User: Valued Ocean Optics Customer
Spectrometer Serial Number: USB2E2917
Spectrometer Channel: Master
Integration Time (msec): 6
Spectra Averaged: 10
Boxcar Smoothing: 5
Correct for Electrical Dark: Enabled
Time Normalized: Disabled
Dual-beam Reference: Disabled
Reference Channel: Master
Temperature: Not acquired
Spectrometer Type: S2000
ADC Type: USB2000
Number of Pixels in File: 2048
Graph Title: 
>>>>>Begin Spectral Data<<<<<
180.30	0.000
180.67	0.000
181.03	32.997
181.40	-4.671
181.77	29.471
182.14	55.930
182.51	-18.871
182.88	168.544
183.25	255.990
183.62	143.102
183.99	99.358
184.36	52.512
184.73	-43.233
185.10	129.356
185.46	90.089
185.83	65.694
186.20	61.763
186.57	86.083
186.94	218.501
187.31	-158.852
187.68	27.850
188.05	10.351
188.42	9.096
188.78	-12.557
189.15	-15.138
189.52	17.034
189.89	16.411
190.26	21.647
190.63	28.992
191.00	26.133
191.37	32.504
191.73	39.450
192.10	36.520
192.47	44.381
192.84	54.737
193.21	44.516
193.58	25.260
193.94	17.275
194.31	6.926
194.68	-12.242
195.05	-20.359
195.42	-29.585
195.79	-42.896
196.15	-17.918
196.52	-17.638
196.89	-29.286
197.26	-34.542
197.63	-22.455
198.00	-27.786
198.36	-28.300
198.73	-37.252
199.10	-35.398
199.47	-39.167
199.84	-40.902
200.20	-46.330
200.57	-61.282
200.94	-47.592
201.31	-31.380
201.68	-22.476
202.04	-17.689
202.41	-15.655
202.78	-8.754
203.15	2.628
203.51	14.231
203.88	24.442
204.25	45.033
204.62	49.648
204.98	39.026
205.35	41.592
205.72	37.338
206.09	33.046
206.46	37.048
206.82	31.457
207.19	9.151
207.56	-16.255
207.92	-24.574
208.29	-61.367
208.66	-72.183
209.03	-47.382
209.39	-77.392
209.76	-54.990
210.13	-49.725
210.50	-36.339
210.86	-16.528
211.23	1.426
211.60	12.901
211.96	15.340
212.33	25.000
212.70	24.453
213.07	17.227
213.43	27.507
213.80	18.706
214.17	21.346
214.53	8.884
214.90	2.288
215.27	1.615
215.63	5.391
216.00	0.056
216.37	-11.116
216.74	-9.672
217.10	-10.667
217.47	-17.299
217.84	-6.412
218.20	-2.680
218.57	-5.553
218.94	-10.008
219.30	-21.680
219.67	-22.833
220.04	-27.918
220.40	-23.858
220.77	-23.299
221.13	-19.385
221.50	-18.529
221.87	-17.755
222.23	-17.932
222.60	-16.399
222.97	-11.729
223.33	-1.213
223.70	-2.516
224.07	1.307
224.43	1.966
224.80	-0.696
225.16	0.129
225.53	2.145
225.90	1.290
226.26	2.768
226.63	3.858
226.99	4.061
227.36	3.320
227.73	2.449
228.09	1.769
228.46	1.896
228.82	3.173
229.19	2.529
229.56	2.362
229.92	3.314
230.29	1.652
230.65	1.576
231.02	0.016
231.38	0.489
231.75	0.583
232.12	1.446
232.48	1.897
232.85	1.879
233.21	3.656
233.58	3.248
233.94	2.367
234.31	3.784
234.68	2.472
235.04	4.589
235.41	2.258
235.77	2.816
236.14	2.733
236.50	3.037
236.87	3.932
237.23	4.286
237.60	4.182
237.96	4.484
238.33	5.317
238.69	5.983
239.06	4.705
239.42	4.957
239.79	4.649
240.15	4.948
240.52	5.245
240.88	5.027
241.25	4.545
241.61	4.731
241.98	4.174
242.34	3.467
242.71	3.226
243.07	3.306
243.44	3.670
243.80	3.758
244.17	3.380
244.53	3.013
244.90	2.835
245.26	2.876
245.63	2.757
245.99	3.097
246.36	3.254
246.72	3.233
247.09	3.438
247.45	3.727
247.81	3.640
248.18	3.801
248.54	3.936
248.91	4.055
249.27	3.723
249.64	3.489
250.00	3.365
250.36	3.254
250.73	3.347
251.09	3.516
251.46	3.332
251.82	3.716
252.19	3.448
252.55	3.516
252.91	3.307
253.28	4.099
253.64	3.993
254.01	4.326
254.37	3.970
254.73	4.016
255.10	3.449
255.46	3.032
255.83	2.739
256.19	3.049
256.55	2.982
256.92	3.106
257.28	2.783
257.65	2.734
258.01	2.813
258.37	2.779
258.74	2.752
259.10	2.604
259.46	2.545
259.83	2.694
260.19	2.558
260.55	2.412
260.92	2.394
261.28	2.468
261.64	2.657
262.01	2.580
262.37	2.745
262.73	2.842
263.10	3.334
263.46	3.715
263.82	3.512
264.19	3.538
264.55	3.685
264.91	3.740
265.28	3.872
265.64	3.909
266.00	3.537
266.37	3.481
266.73	3.317
267.09	3.180
267.46	2.749
267.82	3.034
268.18	2.653
268.54	2.574
268.91	2.450
269.27	2.198
269.63	1.904
270.00	2.013
270.36	1.930
270.72	2.032
271.08	2.158
271.45	2.263
271.81	2.173
272.17	2.645
272.53	2.749
272.90	2.709
273.26	2.751
273.62	2.951
273.98	2.848
274.35	2.965
274.71	3.019
275.07	3.014
275.43	2.943
275.80	2.806
276.16	2.654
276.52	2.425
276.88	2.372
277.25	2.349
277.61	2.597
277.97	2.572
278.33	2.587
278.69	2.404
279.06	2.253
279.42	2.533
279.78	2.399
280.14	2.371
280.50	2.570
280.87	2.885
281.23	2.830
281.59	2.654
281.95	2.886
282.31	2.946
282.68	3.018
283.04	2.991
283.40	2.898
283.76	3.094
284.12	3.313
284.48	3.333
284.85	3.154
285.21	3.205
285.57	3.237
285.93	2.981
286.29	2.777
286.65	2.971
287.02	3.092
287.38	3.132
287.74	3.137
288.10	3.229
288.46	3.317
288.82	3.569
289.18	3.832
289.54	3.897
289.91	4.292
290.27	4.698
290.63	4.774
290.99	4.994
291.35	5.241
291.71	5.499
292.07	5.291
292.43	5.328
292.79	5.414
293.16	5.500
293.52	5.661
293.88	5.718
294.24	5.907
294.60	5.999
294.96	6.092
295.32	6.141
295.68	6.327
296.04	6.780
296.40	7.002
296.76	7.245
297.12	7.384
297.49	7.708
297.85	7.904
298.21	8.153
298.57	8.382
298.93	8.541
299.29	8.825
299.65	8.892
300.01	8.907
300.37	9.169
300.73	9.187
301.09	9.312
301.45	9.362
301.81	9.399
302.17	9.531
302.53	9.487
302.89	9.626
303.25	9.857
303.61	10.027
303.97	10.102
304.33	10.060
304.69	10.209
305.05	10.453
305.41	10.601
305.77	10.942
306.13	10.915
306.49	11.163
306.85	11.134
307.21	11.171
307.57	11.369
307.93	11.471
308.29	11.649
308.65	11.703
309.01	11.730
309.37	11.751
309.73	11.693
310.09	11.780
310.45	11.843
310.81	12.076
311.17	12.153
311.53	12.070
311.89	12.083
312.25	12.037
312.61	12.168
312.96	12.147
313.32	12.300
313.68	12.247
314.04	12.269
314.40	12.312
314.76	12.186
315.12	12.060
315.48	12.033
315.84	12.047
316.20	12.150
316.56	12.079
316.92	12.236
317.27	12.130
317.63	12.254
317.99	12.448
318.35	12.381
318.71	12.447
319.07	12.433
319.43	12.543
319.79	12.501
320.15	12.600
320.50	12.701
320.86	12.584
321.22	12.767
321.58	12.856
321.94	12.664
322.30	12.679
322.66	12.653
323.01	12.746
323.37	12.736
323.73	12.898
324.09	12.804
324.45	12.723
324.81	12.715
325.17	12.581
325.52	12.515
325.88	12.630
326.24	12.732
326.60	12.819
326.96	12.867
327.31	12.854
327.67	12.769
328.03	12.702
328.39	12.786
328.75	12.851
329.11	12.864
329.46	12.907
329.82	12.858
330.18	12.867
330.54	12.936
330.90	12.856
331.25	12.878
331.61	13.047
331.97	13.098
332.33	13.023
332.68	12.990
333.04	13.013
333.40	12.925
333.76	12.989
334.11	12.815
334.47	12.710
334.83	12.809
335.19	12.770
335.54	12.588
335.90	12.615
336.26	12.584
336.62	12.504
336.97	12.486
337.33	12.514
337.69	12.395
338.05	12.524
338.40	12.509
338.76	12.348
339.12	12.359
339.48	12.328
339.83	12.389
340.19	12.387
340.55	12.461
340.90	12.302
341.26	12.313
341.62	12.360
341.97	12.364
342.33	12.351
342.69	12.385
343.04	12.388
343.40	12.419
343.76	12.360
344.12	12.300
344.47	12.139
344.83	12.257
345.19	12.307
345.54	12.305
345.90	12.181
346.26	12.173
346.61	12.172
346.97	12.075
347.32	12.019
347.68	11.956
348.04	12.000
348.39	12.119
348.75	12.090
349.11	12.083
349.46	11.973
349.82	11.960
350.18	11.847
350.53	11.798
350.89	11.809
351.24	11.781
351.60	11.783
351.96	11.675
352.31	11.563
352.67	11.532
353.02	11.377
353.38	11.374
353.74	11.355
354.09	11.389
354.45	11.385
354.80	11.359
355.16	11.418
355.52	11.372
355.87	11.352
356.23	11.378
356.58	11.355
356.94	11.355
357.29	11.304
357.65	11.280
358.00	11.293
358.36	11.284
358.72	11.235
359.07	11.063
359.43	11.009
359.78	10.987
360.14	10.924
360.49	10.893
360.85	10.836
361.20	10.877
361.56	10.860
361.91	10.804
362.27	10.724
362.62	10.761
362.98	10.813
363.33	10.796
363.69	10.815
364.04	10.759
364.40	10.758
364.75	10.734
365.11	10.640
365.46	10.621
365.82	10.641
366.17	10.657
366.53	10.598
366.88	10.572
367.24	10.563
367.59	10.525
367.95	10.607
368.30	10.588
368.66	10.579
369.01	10.583
369.37	10.606
369.72	10.544
370.08	10.503
370.43	10.473
370.78	10.476
371.14	10.462
371.49	10.420
371.85	10.405
372.20	10.348
372.56	10.337
372.91	10.266
373.26	10.156
373.62	10.118
373.97	10.149
374.33	10.134
374.68	10.113
375.03	10.056
375.39	10.044
375.74	9.996
376.10	9.958
376.45	9.893
376.80	9.923
377.16	9.928
377.51	9.912
377.87	9.853
378.22	9.816
378.57	9.762
378.93	9.730
379.28	9.722
379.63	9.681
379.99	9.661
380.34	9.681
380.70	9.642
381.05	9.618
381.40	9.640
381.76	9.629
382.11	9.602
382.46	9.586
382.82	9.594
383.17	9.558
383.52	9.512
383.88	9.506
384.23	9.487
384.58	9.490
384.94	9.478
385.29	9.454
385.64	9.383
385.99	9.367
386.35	9.350
386.70	9.313
387.05	9.239
387.41	9.216
387.76	9.168
388.11	9.138
388.47	9.084
388.82	9.039
389.17	8.991
389.52	8.965
389.88	8.950
390.23	8.911
390.58	8.869
390.93	8.910
391.29	8.887
391.64	8.869
391.99	8.836
392.34	8.832
392.70	8.825
393.05	8.799
393.40	8.810
393.75	8.808
394.11	8.806
394.46	8.768
394.81	8.706
395.16	8.676
395.52	8.682
395.87	8.667
396.22	8.625
396.57	8.599
396.92	8.577
397.28	8.567
397.63	8.503
397.98	8.449
398.33	8.442
398.68	8.437
399.04	8.442
399.39	8.395
399.74	8.332
400.09	8.294
400.44	8.263
400.80	8.233
401.15	8.197
401.50	8.190
401.85	8.161
402.20	8.134
402.55	8.120
402.90	8.089
403.26	8.061
403.61	8.074
403.96	8.070
404.31	8.064
404.66	8.047
405.01	8.022
405.36	7.989
405.72	8.011
406.07	8.000
406.42	7.986
406.77	7.985
407.12	7.987
407.47	7.990
407.82	8.010
408.17	7.979
408.53	7.969
408.88	7.960
409.23	7.932
409.58	7.883
409.93	7.867
410.28	7.846
410.63	7.810
410.98	7.753
411.33	7.732
411.68	7.670
412.03	7.654
412.38	7.616
412.73	7.569
413.09	7.541
413.44	7.517
413.79	7.487
414.14	7.434
414.49	7.410
414.84	7.383
415.19	7.338
415.54	7.299
415.89	7.249
416.24	7.214
416.59	7.178
416.94	7.166
417.29	7.134
417.64	7.096
417.99	7.069
418.34	7.052
418.69	7.056
419.04	7.036
419.39	7.023
419.74	7.019
420.09	7.008
420.44	7.011
420.79	6.991
421.14	6.994
421.49	6.993
421.84	6.992
422.19	6.973
422.54	6.953
422.89	6.954
423.24	6.953
423.59	6.938
423.94	6.947
424.29	6.948
424.64	6.962
424.99	6.950
425.34	6.951
425.68	6.968
426.03	6.984
426.38	6.989
426.73	7.004
427.08	7.021
427.43	7.033
427.78	7.003
428.13	6.976
428.48	6.955
428.83	6.933
429.18	6.914
429.53	6.886
429.87	6.850
430.22	6.833
430.57	6.809
430.92	6.778
431.27	6.764
431.62	6.765
431.97	6.757
432.32	6.743
432.67	6.747
433.01	6.749
433.36	6.727
433.71	6.733
434.06	6.712
434.41	6.688
434.76	6.682
435.11	6.679
435.45	6.652
435.80	6.643
436.15	6.621
436.50	6.602
436.85	6.587
437.20	6.577
437.54	6.551
437.89	6.555
438.24	6.548
438.59	6.538
438.94	6.516
439.29	6.529
439.63	6.516
439.98	6.504
440.33	6.492
440.68	6.474
441.03	6.469
441.37	6.463
441.72	6.438
442.07	6.424
442.42	6.392
442.76	6.362
443.11	6.326
443.46	6.308
443.81	6.314
444.16	6.297
444.50	6.283
444.85	6.273
445.20	6.264
445.55	6.269
445.89	6.258
446.24	6.258
446.59	6.277
446.94	6.277
447.28	6.278
447.63	6.276
447.98	6.290
448.32	6.315
448.67	6.302
449.02	6.302
449.37	6.280
449.71	6.270
450.06	6.269
450.41	6.248
450.75	6.242
451.10	6.239
451.45	6.223
451.79	6.208
452.14	6.178
452.49	6.175
452.84	6.179
453.18	6.177
453.53	6.158
453.88	6.135
454.22	6.119
454.57	6.085
454.92	6.062
455.26	6.039
455.61	6.026
455.95	6.002
456.30	5.993
456.65	5.959
456.99	5.935
457.34	5.937
457.69	5.944
458.03	5.939
458.38	5.947
458.73	5.944
459.07	5.944
459.42	5.934
459.76	5.950
460.11	5.961
460.46	5.972
460.80	5.970
461.15	5.982
461.49	5.983
461.84	5.992
462.19	5.992
462.53	5.984
462.88	5.982
463.22	5.987
463.57	5.987
463.91	5.960
464.26	5.962
464.61	5.977
464.95	5.955
465.30	5.936
465.64	5.932
465.99	5.915
466.33	5.911
466.68	5.912
467.02	5.913
467.37	5.898
467.71	5.905
468.06	5.896
468.41	5.875
468.75	5.876
469.10	5.859
469.44	5.846
469.79	5.855
470.13	5.867
470.48	5.854
470.82	5.844
471.17	5.840
471.51	5.822
471.86	5.809
472.20	5.795
472.55	5.779
472.89	5.782
473.23	5.772
473.58	5.753
473.92	5.729
474.27	5.713
474.61	5.694
474.96	5.678
475.30	5.683
475.65	5.671
475.99	5.672
476.34	5.663
476.68	5.651
477.02	5.638
477.37	5.630
477.71	5.612
478.06	5.583
478.40	5.567
478.75	5.568
479.09	5.571
479.43	5.649
479.78	5.757
480.12	5.889
480.47	6.009
480.81	6.140
481.15	6.275
481.50	6.400
481.84	6.560
482.19	6.732
482.53	6.886
482.87	7.018
483.22	7.056
483.56	7.010
483.90	6.914
484.25	6.791
484.59	6.634
484.94	6.462
485.28	6.296
485.62	6.095
485.97	5.879
486.31	5.676
486.65	5.505
487.00	5.386
487.34	5.319
487.68	5.284
488.03	5.279
488.37	5.281
488.71	5.286
489.06	5.296
489.40	5.294
489.74	5.302
490.09	5.313
490.43	5.316
490.77	5.316
491.11	5.323
491.46	5.316
491.80	5.302
492.14	5.301
492.49	5.299
492.83	5.298
493.17	5.307
493.51	5.293
493.86	5.291
494.20	5.288
494.54	5.287
494.88	5.274
495.23	5.273
495.57	5.267
495.91	5.261
496.25	5.249
496.60	5.230
496.94	5.221
497.28	5.223
497.62	5.216
497.97	5.208
498.31	5.207
498.65	5.211
498.99	5.196
499.33	5.185
499.68	5.172
500.02	5.173
500.36	5.173
500.70	5.167
501.04	5.163
501.39	5.176
501.73	5.175
502.07	5.169
502.41	5.149
502.75	5.143
503.09	5.147
503.44	5.143
503.78	5.134
504.12	5.122
504.46	5.121
504.80	5.107
505.14	5.075
505.49	5.061
505.83	5.048
506.17	5.052
506.51	5.063
506.85	5.053
507.19	5.046
507.53	5.046
507.87	5.049
508.22	5.036
508.56	5.035
508.90	5.040
509.24	5.032
509.58	5.024
509.92	5.014
510.26	4.992
510.60	4.984
510.94	4.978
511.28	4.954
511.63	4.951
511.97	4.952
512.31	4.955
512.65	4.954
512.99	4.963
513.33	4.958
513.67	4.955
514.01	4.952
514.35	4.942
514.69	4.923
515.03	4.918
515.37	4.892
515.71	4.888
516.05	4.873
516.39	4.867
516.73	4.863
517.07	4.860
517.41	4.848
517.75	4.843
518.09	4.838
518.43	4.854
518.77	4.857
519.11	4.854
519.45	4.844
519.79	4.846
520.13	4.832
520.47	4.816
520.81	4.807
521.15	4.811
521.49	4.806
521.83	4.802
522.17	4.791
522.51	4.783
522.85	4.778
523.19	4.770
523.53	4.757
523.87	4.757
524.21	4.770
524.55	4.805
524.89	4.844
525.23	4.888
525.57	4.939
525.91	4.973
526.25	5.021
526.58	5.067
526.92	5.116
527.26	5.145
527.60	5.142
527.94	5.111
528.28	5.036
528.62	4.942
528.96	4.844
529.30	4.783
529.64	4.727
529.97	4.658
530.31	4.591
530.65	4.520
530.99	4.466
531.33	4.450
531.67	4.460
532.01	4.502
532.35	4.559
532.68	4.609
533.02	4.598
533.36	4.598
533.70	4.596
534.04	4.599
534.38	4.589
534.71	4.578
535.05	4.569
535.39	4.553
535.73	4.532
536.07	4.514
536.41	4.507
536.74	4.500
537.08	4.492
537.42	4.488
537.76	4.476
538.10	4.485
538.43	4.497
538.77	4.495
539.11	4.499
539.45	4.505
539.79	4.506
540.12	4.498
540.46	4.494
540.80	4.499
541.14	4.491
541.47	4.487
541.81	4.474
542.15	4.458
542.49	4.446
542.82	4.431
543.16	4.417
543.50	4.395
543.84	4.392
544.17	4.400
544.51	4.384
544.85	4.385
545.18	4.362
545.52	4.349
545.86	4.346
546.20	4.355
546.53	4.349
546.87	4.352
547.21	4.367
547.54	4.365
547.88	4.349
548.22	4.342
548.55	4.343
548.89	4.368
549.23	4.373
549.56	4.382
549.90	4.372
550.24	4.378
550.57	4.348
550.91	4.355
551.25	4.354
551.58	4.355
551.92	4.356
552.26	4.343
552.59	4.320
552.93	4.319
553.27	4.311
553.60	4.306
553.94	4.305
554.27	4.317
554.61	4.299
554.95	4.291
555.28	4.287
555.62	4.278
555.95	4.276
556.29	4.299
556.63	4.298
556.96	4.300
557.30	4.294
557.63	4.278
557.97	4.294
558.31	4.286
558.64	4.279
558.98	4.279
559.31	4.270
559.65	4.266
559.98	4.255
560.32	4.254
560.65	4.230
560.99	4.219
561.33	4.214
561.66	4.210
562.00	4.197
562.33	4.193
562.67	4.198
563.00	4.211
563.34	4.191
563.67	4.164
564.01	4.137
564.34	4.151
564.68	4.150
565.01	4.136
565.35	4.111
565.68	4.116
566.02	4.113
566.35	4.117
566.69	4.114
567.02	4.129
567.36	4.139
567.69	4.150
568.03	4.138
568.36	4.145
568.69	4.132
569.03	4.123
569.36	4.120
569.70	4.107
570.03	4.075
570.37	4.056
570.70	4.035
571.04	4.030
571.37	4.024
571.70	4.016
572.04	4.006
572.37	4.031
572.71	4.035
573.04	4.037
573.37	4.044
573.71	4.050
574.04	4.047
574.38	4.059
574.71	4.068
575.04	4.059
575.38	4.044
575.71	4.046
576.05	4.031
576.38	4.026
576.71	4.026
577.05	4.026
577.38	4.015
577.71	4.013
578.05	4.019
578.38	4.001
578.71	3.996
579.05	4.014
579.38	3.999
579.71	4.001
580.05	4.029
580.38	3.992
580.71	3.980
581.05	3.978
581.38	3.985
581.71	3.973
582.05	3.986
582.38	3.995
582.71	3.978
583.04	3.978
583.38	3.971
583.71	3.932
584.04	3.957
584.38	3.954
584.71	3.976
585.04	3.956
585.37	3.933
585.71	3.917
586.04	3.888
586.37	3.895
586.70	3.879
587.04	3.874
587.37	3.876
587.70	3.875
588.03	3.891
588.37	3.864
588.70	3.881
589.03	3.903
589.36	3.912
589.69	3.919
590.03	3.924
590.36	3.945
590.69	3.949
591.02	3.966
591.35	3.956
591.69	3.942
592.02	3.951
592.35	3.934
592.68	3.917
593.01	3.889
593.35	3.876
593.68	3.869
594.01	3.846
594.34	3.835
594.67	3.830
595.00	3.818
595.34	3.818
595.67	3.800
596.00	3.804
596.33	3.804
596.66	3.820
596.99	3.830
597.32	3.808
597.65	3.809
597.99	3.828
598.32	3.809
598.65	3.827
598.98	3.830
599.31	3.830
599.64	3.805
599.97	3.810
600.30	3.800
600.63	3.796
600.96	3.797
601.30	3.780
601.63	3.757
601.96	3.760
602.29	3.744
602.62	3.740
602.95	3.751
603.28	3.759
603.61	3.763
603.94	3.766
604.27	3.763
604.60	3.774
604.93	3.778
605.26	3.788
605.59	3.779
605.92	3.790
606.25	3.771
606.58	3.767
606.91	3.767
607.24	3.752
607.57	3.760
607.90	3.764
608.23	3.754
608.56	3.752
608.89	3.754
609.22	3.755
609.55	3.737
609.88	3.748
610.21	3.761
610.54	3.762
610.87	3.756
611.20	3.757
611.53	3.745
611.86	3.749
612.19	3.764
612.52	3.735
612.85	3.741
613.18	3.753
613.51	3.767
613.84	3.752
614.17	3.748
614.49	3.750
614.82	3.739
615.15	3.735
615.48	3.710
615.81	3.695
616.14	3.720
616.47	3.680
616.80	3.671
617.13	3.656
617.46	3.658
617.78	3.655
618.11	3.645
618.44	3.645
618.77	3.668
619.10	3.670
619.43	3.697
619.76	3.693
620.09	3.724
620.41	3.720
620.74	3.705
621.07	3.703
621.40	3.694
621.73	3.694
622.06	3.705
622.38	3.702
622.71	3.718
623.04	3.691
623.37	3.686
623.70	3.693
624.02	3.675
624.35	3.685
624.68	3.670
625.01	3.664
625.34	3.671
625.66	3.648
625.99	3.621
626.32	3.627
626.65	3.618
626.98	3.624
627.30	3.615
627.63	3.633
627.96	3.623
628.29	3.636
628.61	3.628
628.94	3.620
629.27	3.620
629.60	3.645
629.92	3.641
630.25	3.655
630.58	3.645
630.91	3.639
631.23	3.648
631.56	3.629
631.89	3.598
632.21	3.618
632.54	3.610
632.87	3.593
633.19	3.587
633.52	3.574
633.85	3.589
634.18	3.597
634.50	3.608
634.83	3.585
635.16	3.574
635.48	3.576
635.81	3.569
636.14	3.578
636.46	3.591
636.79	3.589
637.11	3.593
637.44	3.572
637.77	3.557
638.09	3.566
638.42	3.573
638.75	3.619
639.07	3.607
639.40	3.612
639.73	3.623
640.05	3.616
640.38	3.614
640.70	3.611
641.03	3.627
641.36	3.648
641.68	3.661
642.01	3.685
642.33	3.681
642.66	3.719
642.98	3.716
643.31	3.716
643.64	3.722
643.96	3.725
644.29	3.724
644.61	3.737
644.94	3.684
645.26	3.674
645.59	3.662
645.91	3.650
646.24	3.641
646.56	3.608
646.89	3.601
647.22	3.579
647.54	3.553
647.87	3.543
648.19	3.535
648.52	3.535
648.84	3.496
649.17	3.474
649.49	3.471
649.82	3.488
650.14	3.545
650.47	3.526
650.79	3.567
651.11	3.597
651.44	3.632
651.76	3.618
652.09	3.653
652.41	3.675
652.74	3.685
653.06	3.695
653.39	3.673
653.71	3.637
654.04	3.638
654.36	3.589
654.68	3.559
