OOIBase32 Version 2.0.0.6 Data File
++++++++++++++++++++++++++++++++++++
Date: 01-23-2012, 22:19:22
User: Valued Ocean Optics Customer
Spectrometer Serial Number: USB2E2917
Spectrometer Channel: Master
Integration Time (msec): 5
Spectra Averaged: 10
Boxcar Smoothing: 5
Correct for Electrical Dark: Enabled
Time Normalized: Disabled
Dual-beam Reference: Disabled
Reference Channel: Master
Temperature: Not acquired
Spectrometer Type: S2000
ADC Type: USB2000
Number of Pixels in File: 2048
Graph Title: 
>>>>>Begin Spectral Data<<<<<
180.30	0.000
180.67	0.000
181.03	278.619
181.40	-100.225
181.77	5955.333
182.14	30.017
182.51	167.053
182.88	3363.083
183.25	387.608
183.62	-38.747
183.99	51.223
184.36	23.800
184.73	71.101
185.10	-65.994
185.46	112.970
185.83	169.992
186.20	20.069
186.57	319.211
186.94	-132.969
187.31	77.329
187.68	44.717
188.05	-34.372
188.42	-10.489
188.78	0.770
189.15	0.889
189.52	9.122
189.89	17.165
190.26	25.585
190.63	45.630
191.00	40.780
191.37	51.031
191.73	59.096
192.10	58.288
192.47	47.270
192.84	31.970
193.21	27.296
193.58	22.633
193.94	20.330
194.31	14.787
194.68	13.054
195.05	8.827
195.42	-4.443
195.79	-14.860
196.15	-7.752
196.52	2.804
196.89	6.930
197.26	7.427
197.63	9.055
198.00	18.099
198.36	21.539
198.73	13.665
199.10	18.100
199.47	21.315
199.84	27.090
200.20	35.950
200.57	23.315
200.94	14.218
201.31	8.910
201.68	19.398
202.04	5.668
202.41	13.155
202.78	10.884
203.15	6.059
203.51	-0.287
203.88	16.848
204.25	13.283
204.62	28.540
204.98	46.854
205.35	48.424
205.72	40.670
206.09	37.146
206.46	44.717
206.82	46.625
207.19	50.546
207.56	42.123
207.92	27.503
208.29	26.491
208.66	12.171
209.03	8.808
209.39	3.313
209.76	6.966
210.13	13.833
210.50	9.050
210.86	16.911
211.23	27.112
211.60	28.068
211.96	31.710
212.33	21.105
212.70	30.967
213.07	23.545
213.43	31.993
213.80	31.650
214.17	28.415
214.53	24.221
214.90	16.058
215.27	10.401
215.63	7.051
216.00	2.371
216.37	8.613
216.74	-2.851
217.10	1.639
217.47	-7.843
217.84	-7.654
218.20	3.386
218.57	8.265
218.94	8.926
219.30	7.912
219.67	-0.177
220.04	-1.038
220.40	-1.753
220.77	-1.032
221.13	-9.715
221.50	-17.093
221.87	-25.399
222.23	-29.845
222.60	-28.073
222.97	-27.701
223.33	-26.602
223.70	-22.958
224.07	-14.984
224.43	-7.115
224.80	-1.091
225.16	3.673
225.53	5.958
225.90	4.759
226.26	3.127
226.63	1.808
226.99	4.798
227.36	7.293
227.73	8.441
228.09	5.536
228.46	4.088
228.82	4.115
229.19	2.482
229.56	1.554
229.92	4.864
230.29	6.227
230.65	6.960
231.02	5.448
231.38	1.886
231.75	2.480
232.12	5.301
232.48	6.147
232.85	5.062
233.21	7.239
233.58	8.576
233.94	8.624
234.31	7.913
234.68	6.532
235.04	6.838
235.41	8.279
235.77	8.710
236.14	7.895
236.50	5.489
236.87	5.908
237.23	4.541
237.60	5.437
237.96	4.602
238.33	5.492
238.69	6.353
239.06	5.873
239.42	5.767
239.79	5.296
240.15	5.885
240.52	6.479
240.88	6.115
241.25	6.661
241.61	6.770
241.98	7.091
242.34	6.584
242.71	7.064
243.07	7.260
243.44	7.535
243.80	7.800
244.17	7.739
244.53	7.841
244.90	8.017
245.26	8.039
245.63	7.766
245.99	7.688
246.36	8.046
246.72	7.590
247.09	7.612
247.45	7.359
247.81	7.031
248.18	6.431
248.54	6.253
248.91	6.203
249.27	6.373
249.64	6.381
250.00	6.168
250.36	6.321
250.73	6.950
251.09	6.831
251.46	6.631
251.82	6.720
252.19	7.296
252.55	7.225
252.91	6.925
253.28	5.757
253.64	5.793
254.01	5.969
254.37	5.355
254.73	5.419
255.10	6.168
255.46	6.374
255.83	6.151
256.19	6.036
256.55	6.146
256.92	6.206
257.28	6.532
257.65	6.424
258.01	6.386
258.37	6.221
258.74	6.076
259.10	5.860
259.46	6.036
259.83	6.314
260.19	6.364
260.55	6.317
260.92	6.282
261.28	5.889
261.64	5.828
262.01	5.886
262.37	6.081
262.73	5.973
263.10	6.028
263.46	6.253
263.82	6.087
264.19	5.946
264.55	5.953
264.91	5.856
265.28	6.348
265.64	6.398
266.00	6.310
266.37	6.348
266.73	6.709
267.09	6.706
267.46	6.476
267.82	6.518
268.18	6.786
268.54	6.659
268.91	6.712
269.27	6.739
269.63	6.798
270.00	6.908
270.36	6.909
270.72	6.593
271.08	6.073
271.45	5.898
271.81	5.913
272.17	5.992
272.53	5.706
272.90	5.428
273.26	5.218
273.62	5.090
273.98	4.942
274.35	4.806
274.71	4.974
275.07	5.356
275.43	5.538
275.80	5.489
276.16	5.566
276.52	5.862
276.88	6.104
277.25	5.774
277.61	5.704
277.97	5.540
278.33	5.466
278.69	5.245
279.06	5.468
279.42	5.249
279.78	5.130
280.14	4.992
280.50	5.163
280.87	5.255
281.23	5.569
281.59	5.756
281.95	5.918
282.31	6.022
282.68	6.175
283.04	6.083
283.40	6.188
283.76	6.052
284.12	6.082
284.48	5.950
284.85	5.896
285.21	5.792
285.57	5.833
285.93	5.851
286.29	5.859
286.65	5.788
287.02	5.813
287.38	5.822
287.74	6.160
288.10	6.107
288.46	6.232
288.82	5.987
289.18	6.000
289.54	5.908
289.91	5.919
290.27	5.998
290.63	6.001
290.99	5.854
291.35	5.766
291.71	5.663
292.07	5.514
292.43	5.515
292.79	5.900
293.16	6.008
293.52	6.012
293.88	6.100
294.24	6.242
294.60	6.231
294.96	6.244
295.32	6.291
295.68	6.126
296.04	6.348
296.40	6.349
296.76	6.264
297.12	6.364
297.49	6.436
297.85	6.542
298.21	6.418
298.57	6.331
298.93	6.430
299.29	6.458
299.65	6.461
300.01	6.307
300.37	6.201
300.73	6.458
301.09	6.512
301.45	6.589
301.81	6.446
302.17	6.506
302.53	6.733
302.89	6.685
303.25	6.580
303.61	6.747
303.97	6.715
304.33	6.776
304.69	6.574
305.05	6.392
305.41	6.251
305.77	6.282
306.13	6.229
306.49	6.196
306.85	6.315
307.21	6.516
307.57	6.599
307.93	6.732
308.29	6.839
308.65	6.813
309.01	6.970
309.37	7.088
309.73	7.104
310.09	7.074
310.45	7.067
310.81	7.039
311.17	6.890
311.53	6.868
311.89	6.949
312.25	6.830
312.61	6.938
312.96	6.959
313.32	6.958
313.68	6.853
314.04	7.005
314.40	7.006
314.76	7.082
315.12	7.221
315.48	7.234
315.84	7.132
316.20	7.282
316.56	7.345
316.92	7.246
317.27	7.169
317.63	7.271
317.99	7.352
318.35	7.497
318.71	7.485
319.07	7.563
319.43	7.740
319.79	7.767
320.15	7.704
320.50	7.581
320.86	7.795
321.22	8.100
321.58	8.285
321.94	8.237
322.30	8.394
322.66	8.610
323.01	8.738
323.37	8.770
323.73	9.025
324.09	9.389
324.45	9.703
324.81	9.795
325.17	9.825
325.52	10.017
325.88	10.175
326.24	10.284
326.60	10.379
326.96	10.657
327.31	10.762
327.67	10.891
328.03	10.879
328.39	10.900
328.75	11.069
329.11	11.286
329.46	11.368
329.82	11.523
330.18	11.671
330.54	11.900
330.90	11.890
331.25	12.025
331.61	12.056
331.97	12.176
332.33	12.402
332.68	12.359
333.04	12.263
333.40	12.388
333.76	12.510
334.11	12.502
334.47	12.377
334.83	12.347
335.19	12.433
335.54	12.556
335.90	12.635
336.26	12.654
336.62	12.815
336.97	12.897
337.33	12.863
337.69	12.822
338.05	12.887
338.40	12.949
338.76	13.050
339.12	12.982
339.48	12.988
339.83	12.928
340.19	12.824
340.55	12.690
340.90	12.733
341.26	12.625
341.62	12.664
341.97	12.745
342.33	12.848
342.69	12.841
343.04	12.906
343.40	12.879
343.76	12.916
344.12	13.065
344.47	13.216
344.83	13.171
345.19	13.280
345.54	13.338
345.90	13.373
346.26	13.328
346.61	13.366
346.97	13.364
347.32	13.356
347.68	13.393
348.04	13.329
348.39	13.336
348.75	13.468
349.11	13.427
349.46	13.360
349.82	13.220
350.18	13.271
350.53	13.224
350.89	13.277
351.24	13.285
351.60	13.261
351.96	13.287
352.31	13.307
352.67	13.276
353.02	13.306
353.38	13.367
353.74	13.340
354.09	13.309
354.45	13.400
354.80	13.404
355.16	13.500
355.52	13.543
355.87	13.566
356.23	13.534
356.58	13.540
356.94	13.585
357.29	13.556
357.65	13.624
358.00	13.670
358.36	13.686
358.72	13.735
359.07	13.718
359.43	13.785
359.78	13.857
360.14	13.913
360.49	13.920
360.85	13.951
361.20	14.059
361.56	14.166
361.91	14.175
362.27	14.184
362.62	14.177
362.98	14.219
363.33	14.280
363.69	14.297
364.04	14.307
364.40	14.381
364.75	14.438
365.11	14.494
365.46	14.488
365.82	14.580
366.17	14.631
366.53	14.761
366.88	14.790
367.24	14.885
367.59	14.907
367.95	15.001
368.30	15.050
368.66	15.107
369.01	15.192
369.37	15.262
369.72	15.301
370.08	15.385
370.43	15.439
370.78	15.514
371.14	15.537
371.49	15.619
371.85	15.641
372.20	15.783
372.56	15.882
372.91	15.884
373.26	15.991
373.62	16.048
373.97	16.131
374.33	16.167
374.68	16.251
375.03	16.318
375.39	16.368
375.74	16.493
376.10	16.469
376.45	16.540
376.80	16.652
377.16	16.701
377.51	16.780
377.87	16.865
378.22	16.943
378.57	17.130
378.93	17.181
379.28	17.316
379.63	17.457
379.99	17.614
380.34	17.737
380.70	17.853
381.05	18.026
381.40	18.184
381.76	18.287
382.11	18.442
382.46	18.429
382.82	18.593
383.17	18.702
383.52	18.777
383.88	18.858
384.23	18.954
384.58	19.036
384.94	19.077
385.29	19.173
385.64	19.296
385.99	19.416
386.35	19.613
386.70	19.741
387.05	19.862
387.41	19.949
387.76	20.078
388.11	20.137
388.47	20.268
388.82	20.358
389.17	20.418
389.52	20.481
389.88	20.538
390.23	20.614
390.58	20.683
390.93	20.738
391.29	20.831
391.64	20.928
391.99	21.021
392.34	21.069
392.70	21.186
393.05	21.280
393.40	21.405
393.75	21.503
394.11	21.551
394.46	21.574
394.81	21.663
395.16	21.694
395.52	21.776
395.87	21.796
396.22	21.840
396.57	21.865
396.92	21.926
397.28	21.977
397.63	21.992
397.98	22.105
398.33	22.192
398.68	22.306
399.04	22.414
399.39	22.449
399.74	22.552
400.09	22.654
400.44	22.725
400.80	22.779
401.15	22.803
401.50	22.865
401.85	22.893
402.20	22.941
402.55	22.970
402.90	23.000
403.26	23.091
403.61	23.158
403.96	23.178
404.31	23.225
404.66	23.269
405.01	23.367
405.36	23.439
405.72	23.480
406.07	23.547
406.42	23.568
406.77	23.606
407.12	23.603
407.47	23.638
407.82	23.728
408.17	23.756
408.53	23.795
408.88	23.815
409.23	23.864
409.58	23.877
409.93	23.901
410.28	23.962
410.63	24.007
410.98	24.069
411.33	24.061
411.68	24.035
412.03	24.092
412.38	24.110
412.73	24.055
413.09	24.000
413.44	24.025
413.79	24.036
414.14	23.958
414.49	23.900
414.84	23.856
415.19	23.845
415.54	23.799
415.89	23.716
416.24	23.667
416.59	23.651
416.94	23.651
417.29	23.578
417.64	23.501
417.99	23.524
418.34	23.533
418.69	23.495
419.04	23.479
419.39	23.483
419.74	23.471
420.09	23.472
420.44	23.471
420.79	23.461
421.14	23.474
421.49	23.507
421.84	23.491
422.19	23.496
422.54	23.541
422.89	23.587
423.24	23.637
423.59	23.703
423.94	23.763
424.29	23.808
424.64	23.868
424.99	23.956
425.34	24.060
425.68	24.177
426.03	24.303
426.38	24.355
426.73	24.419
427.08	24.455
427.43	24.491
427.78	24.492
428.13	24.555
428.48	24.579
428.83	24.603
429.18	24.585
429.53	24.560
429.87	24.519
430.22	24.495
430.57	24.512
430.92	24.518
431.27	24.557
431.62	24.591
431.97	24.607
432.32	24.632
432.67	24.638
433.01	24.655
433.36	24.703
433.71	24.759
434.06	24.829
434.41	24.831
434.76	24.871
435.11	24.876
435.45	24.888
435.80	24.862
436.15	24.859
436.50	24.842
436.85	24.847
437.20	24.818
437.54	24.780
437.89	24.762
438.24	24.759
438.59	24.747
438.94	24.759
439.29	24.764
439.63	24.790
439.98	24.808
440.33	24.815
440.68	24.820
441.03	24.823
441.37	24.825
441.72	24.835
442.07	24.835
442.42	24.819
442.76	24.796
443.11	24.784
443.46	24.743
443.81	24.724
444.16	24.737
444.50	24.733
444.85	24.761
445.20	24.790
445.55	24.792
445.89	24.805
446.24	24.830
446.59	24.878
446.94	24.946
447.28	25.032
447.63	25.110
447.98	25.173
448.32	25.259
448.67	25.306
449.02	25.343
449.37	25.400
449.71	25.442
450.06	25.485
450.41	25.497
450.75	25.485
451.10	25.466
451.45	25.514
451.79	25.518
452.14	25.504
452.49	25.519
452.84	25.566
453.18	25.599
453.53	25.623
453.88	25.654
454.22	25.652
454.57	25.666
454.92	25.728
455.26	25.700
455.61	25.707
455.95	25.738
456.30	25.776
456.65	25.754
456.99	25.767
457.34	25.801
457.69	25.818
458.03	25.861
458.38	25.905
458.73	25.934
459.07	26.005
459.42	26.084
459.76	26.144
460.11	26.193
460.46	26.283
460.80	26.388
461.15	26.498
461.49	26.597
461.84	26.711
462.19	26.811
462.53	26.916
462.88	26.986
463.22	27.054
463.57	27.121
463.91	27.200
464.26	27.299
464.61	27.330
464.95	27.383
465.30	27.430
465.64	27.508
465.99	27.559
466.33	27.624
466.68	27.688
467.02	27.757
467.37	27.814
467.71	27.876
468.06	27.930
468.41	28.005
468.75	28.050
469.10	28.127
469.44	28.163
469.79	28.255
470.13	28.326
470.48	28.316
470.82	28.346
471.17	28.401
471.51	28.438
471.86	28.457
472.20	28.498
472.55	28.526
472.89	28.543
473.23	28.543
473.58	28.541
473.92	28.535
474.27	28.583
474.61	28.589
474.96	28.580
475.30	28.569
475.65	28.575
475.99	28.635
476.34	28.652
476.68	28.678
477.02	28.709
477.37	28.730
477.71	28.772
478.06	28.826
478.40	28.898
478.75	29.062
479.09	29.256
479.43	29.479
479.78	29.712
480.12	30.042
480.47	30.415
480.81	30.832
481.15	31.247
481.50	31.687
481.84	32.242
482.19	32.821
482.53	33.292
482.87	33.524
483.22	33.481
483.56	33.192
483.90	32.712
484.25	32.115
484.59	31.540
484.94	31.135
485.28	30.736
485.62	30.185
485.97	29.601
486.31	29.100
486.65	28.831
487.00	28.841
487.34	29.071
487.68	29.434
488.03	29.889
488.37	30.259
488.71	30.402
489.06	30.462
489.40	30.534
489.74	30.597
490.09	30.662
490.43	30.694
490.77	30.743
491.11	30.792
491.46	30.878
491.80	30.946
492.14	31.023
492.49	31.102
492.83	31.194
493.17	31.264
493.51	31.333
493.86	31.437
494.20	31.558
494.54	31.667
494.88	31.767
495.23	31.827
495.57	31.924
495.91	32.054
496.25	32.134
496.60	32.215
496.94	32.325
497.28	32.463
497.62	32.567
497.97	32.709
498.31	32.828
498.65	32.959
498.99	33.156
499.33	33.325
499.68	33.460
500.02	33.627
500.36	33.809
500.70	33.991
501.04	34.142
501.39	34.257
501.73	34.399
502.07	34.533
502.41	34.674
502.75	34.774
503.09	34.892
503.44	35.008
503.78	35.120
504.12	35.229
504.46	35.341
504.80	35.460
505.14	35.643
505.49	35.752
505.83	35.874
506.17	36.015
506.51	36.150
506.85	36.271
507.19	36.391
507.53	36.541
507.87	36.676
508.22	36.809
508.56	36.939
508.90	37.036
509.24	37.191
509.58	37.354
509.92	37.484
510.26	37.618
510.60	37.768
510.94	37.916
511.28	38.036
511.63	38.214
511.97	38.360
512.31	38.518
512.65	38.671
512.99	38.793
513.33	38.922
513.67	39.114
514.01	39.258
514.35	39.398
514.69	39.543
515.03	39.679
515.37	39.753
515.71	39.859
516.05	39.956
516.39	40.040
516.73	40.136
517.07	40.235
517.41	40.301
517.75	40.380
518.09	40.473
518.43	40.562
518.77	40.693
519.11	40.811
519.45	40.961
519.79	41.075
520.13	41.215
520.47	41.353
520.81	41.519
521.15	41.633
521.49	41.767
521.83	41.868
522.17	41.987
522.51	42.103
522.85	42.210
523.19	42.360
523.53	42.601
523.87	42.846
524.21	43.102
524.55	43.291
524.89	43.508
525.23	43.723
525.57	43.901
525.91	44.067
526.25	44.208
526.58	44.345
526.92	44.446
527.26	44.478
527.60	44.489
527.94	44.469
528.28	44.461
528.62	44.440
528.96	44.407
529.30	44.391
529.64	44.347
529.97	44.323
530.31	44.311
530.65	44.299
530.99	44.334
531.33	44.386
531.67	44.487
532.01	44.558
532.35	44.619
532.68	44.674
533.02	44.722
533.36	44.804
533.70	44.843
534.04	44.881
534.38	44.926
534.71	45.007
535.05	45.071
535.39	45.086
535.73	45.161
536.07	45.271
536.41	45.420
536.74	45.564
537.08	45.674
537.42	45.839
537.76	45.989
538.10	46.134
538.43	46.237
538.77	46.336
539.11	46.449
539.45	46.545
539.79	46.591
540.12	46.612
540.46	46.610
540.80	46.618
541.14	46.583
541.47	46.588
541.81	46.604
542.15	46.611
542.49	46.642
542.82	46.656
543.16	46.671
543.50	46.726
543.84	46.808
544.17	46.919
544.51	47.059
544.85	47.194
545.18	47.271
545.52	47.340
545.86	47.440
546.20	47.541
546.53	47.661
546.87	47.800
547.21	47.964
547.54	48.081
547.88	48.238
548.22	48.363
548.55	48.514
548.89	48.659
549.23	48.836
549.56	48.965
549.90	49.077
550.24	49.154
550.57	49.212
550.91	49.249
551.25	49.281
551.58	49.341
551.92	49.400
552.26	49.467
552.59	49.593
552.93	49.676
553.27	49.778
553.60	49.903
553.94	50.055
554.27	50.203
554.61	50.364
554.95	50.526
555.28	50.630
555.62	50.778
555.95	50.949
556.29	51.056
556.63	51.168
556.96	51.248
557.30	51.344
557.63	51.435
557.97	51.519
558.31	51.603
558.64	51.760
558.98	51.873
559.31	51.942
559.65	52.031
559.98	52.111
560.32	52.168
560.65	52.270
560.99	52.316
561.33	52.389
561.66	52.465
562.00	52.535
562.33	52.544
562.67	52.599
563.00	52.663
563.34	52.676
563.67	52.762
564.01	52.806
564.34	52.871
564.68	52.938
565.01	53.001
565.35	53.086
565.68	53.167
566.02	53.252
566.35	53.368
566.69	53.457
567.02	53.580
567.36	53.642
567.69	53.734
568.03	53.812
568.36	53.927
568.69	54.001
569.03	54.083
569.36	54.148
569.70	54.209
570.03	54.238
570.37	54.288
570.70	54.385
571.04	54.484
571.37	54.571
571.70	54.660
572.04	54.709
572.37	54.820
572.71	54.889
573.04	54.977
573.37	55.108
573.71	55.246
574.04	55.401
574.38	55.513
574.71	55.631
575.04	55.799
575.38	55.955
575.71	56.120
576.05	56.250
576.38	56.401
576.71	56.563
577.05	56.711
577.38	56.870
577.71	57.017
578.05	57.130
578.38	57.262
578.71	57.386
579.05	57.474
579.38	57.619
579.71	57.754
580.05	57.866
580.38	57.953
580.71	58.084
581.05	58.192
581.38	58.273
581.71	58.374
582.05	58.483
582.38	58.576
582.71	58.719
583.04	58.794
583.38	58.874
583.71	58.990
584.04	59.092
584.38	59.159
584.71	59.194
585.04	59.272
585.37	59.357
585.71	59.404
586.04	59.451
586.37	59.450
586.70	59.452
587.04	59.496
587.37	59.545
587.70	59.605
588.03	59.648
588.37	59.738
588.70	59.829
589.03	59.862
589.36	59.933
589.69	60.031
590.03	60.107
590.36	60.194
590.69	60.270
591.02	60.369
591.35	60.433
591.69	60.436
592.02	60.447
592.35	60.399
592.68	60.421
593.01	60.409
593.35	60.373
593.68	60.379
594.01	60.390
594.34	60.398
594.67	60.368
595.00	60.335
595.34	60.354
595.67	60.370
596.00	60.472
596.33	60.504
596.66	60.593
596.99	60.671
597.32	60.808
597.65	60.967
597.99	61.067
598.32	61.180
598.65	61.329
598.98	61.484
599.31	61.618
599.64	61.627
599.97	61.722
600.30	61.725
600.63	61.710
600.96	61.673
601.30	61.579
601.63	61.577
601.96	61.496
602.29	61.460
602.62	61.408
602.95	61.379
603.28	61.414
603.61	61.454
603.94	61.496
604.27	61.571
604.60	61.642
604.93	61.747
605.26	61.746
605.59	61.909
605.92	61.999
606.25	62.083
606.58	62.186
606.91	62.253
607.24	62.219
607.57	62.224
607.90	62.228
608.23	62.209
608.56	62.255
608.89	62.398
609.22	62.398
609.55	62.437
609.88	62.519
610.21	62.582
610.54	62.707
610.87	62.852
611.20	63.061
611.53	63.260
611.86	63.460
612.19	63.628
612.52	63.713
612.85	63.882
613.18	64.015
613.51	64.039
613.84	64.079
614.17	64.112
614.49	64.135
614.82	64.117
615.15	64.076
615.48	64.066
615.81	64.015
616.14	63.995
616.47	64.003
616.80	63.941
617.13	64.001
617.46	64.013
617.78	63.982
618.11	64.035
618.44	64.019
618.77	64.033
619.10	64.008
619.43	64.057
619.76	64.144
620.09	64.146
620.41	64.267
620.74	64.282
621.07	64.353
621.40	64.379
621.73	64.384
622.06	64.351
622.38	64.399
622.71	64.334
623.04	64.243
623.37	64.079
623.70	63.989
624.02	63.893
624.35	63.852
624.68	63.709
625.01	63.633
625.34	63.567
625.66	63.582
625.99	63.529
626.32	63.594
626.65	63.673
626.98	63.752
627.30	63.877
627.63	63.875
627.96	63.947
628.29	64.037
628.61	64.144
628.94	64.172
629.27	64.185
629.60	64.275
629.92	64.241
630.25	64.164
630.58	64.091
630.91	63.942
631.23	63.967
631.56	63.936
631.89	64.017
632.21	63.956
632.54	63.908
632.87	63.947
633.19	63.871
633.52	63.944
633.85	64.020
634.18	64.086
634.50	64.104
634.83	64.148
635.16	64.094
635.48	64.049
635.81	64.067
636.14	64.196
636.46	64.188
636.79	64.276
637.11	64.322
637.44	64.305
637.77	64.285
638.09	64.368
638.42	64.303
638.75	64.385
639.07	64.384
