OOIBase32 Version 2.0.0.6 Data File
++++++++++++++++++++++++++++++++++++
Date: 01-23-2012, 22:19:19
User: Valued Ocean Optics Customer
Spectrometer Serial Number: USB2E2917
Spectrometer Channel: Master
Integration Time (msec): 5
Spectra Averaged: 10
Boxcar Smoothing: 5
Correct for Electrical Dark: Enabled
Time Normalized: Disabled
Dual-beam Reference: Disabled
Reference Channel: Master
Temperature: Not acquired
Spectrometer Type: S2000
ADC Type: USB2000
Number of Pixels in File: 2048
Graph Title: 
>>>>>Begin Spectral Data<<<<<
180.30	0.000
180.67	0.000
181.03	193.461
181.40	34.863
181.77	593.333
182.14	29.187
182.51	177.492
182.88	-5697.458
183.25	-23.529
183.62	58.857
183.99	55.313
184.36	230.783
184.73	158.370
185.10	-121.877
185.46	20.427
185.83	22.019
186.20	67.254
186.57	176.914
186.94	-97.673
187.31	155.690
187.68	47.508
188.05	-21.385
188.42	5.408
188.78	7.023
189.15	4.076
189.52	30.015
189.89	21.711
190.26	16.477
190.63	35.626
191.00	18.787
191.37	22.796
191.73	26.417
192.10	31.848
192.47	22.224
192.84	21.648
193.21	13.798
193.58	0.306
193.94	5.419
194.31	-1.128
194.68	-1.837
195.05	-7.973
195.42	-18.727
195.79	-26.091
196.15	-20.291
196.52	-19.790
196.89	-34.354
197.26	-23.725
197.63	-29.737
198.00	-32.264
198.36	-21.677
198.73	-24.680
199.10	-14.227
199.47	-6.588
199.84	-5.622
200.20	2.731
200.57	-13.738
200.94	-4.013
201.31	-6.790
201.68	10.752
202.04	13.798
202.41	21.060
202.78	20.913
203.15	18.583
203.51	-1.646
203.88	-0.293
204.25	-3.300
204.62	13.718
204.98	16.414
205.35	16.566
205.72	24.330
206.09	18.664
206.46	15.591
206.82	13.701
207.19	8.818
207.56	21.463
207.92	18.331
208.29	14.054
208.66	14.680
209.03	17.355
209.39	12.136
209.76	-7.909
210.13	-13.998
210.50	-24.388
210.86	-18.499
211.23	-1.394
211.60	-1.635
211.96	2.836
212.33	4.313
212.70	7.564
213.07	0.055
213.43	9.103
213.80	20.790
214.17	17.528
214.53	22.699
214.90	25.616
215.27	24.365
215.63	23.972
216.00	19.855
216.37	18.411
216.74	18.242
217.10	17.765
217.47	5.358
217.84	-3.751
218.20	6.147
218.57	6.523
218.94	5.105
219.30	-0.720
219.67	-0.478
220.04	-4.364
220.40	-10.472
220.77	-14.200
221.13	-18.040
221.50	-17.276
221.87	-12.808
222.23	-2.583
222.60	-4.006
222.97	-12.695
223.33	-18.510
223.70	-19.242
224.07	-13.197
224.43	-9.078
224.80	-5.672
225.16	-1.892
225.53	2.198
225.90	-0.947
226.26	-5.498
226.63	-5.574
226.99	-1.600
227.36	1.914
227.73	3.360
228.09	2.077
228.46	2.322
228.82	3.174
229.19	2.325
229.56	-1.591
229.92	0.419
230.29	3.386
230.65	3.456
231.02	2.790
231.38	0.865
231.75	0.284
232.12	2.786
232.48	2.293
232.85	1.964
233.21	4.498
233.58	7.480
233.94	8.079
234.31	6.306
234.68	6.700
235.04	6.062
235.41	6.468
235.77	6.307
236.14	4.453
236.50	3.285
236.87	2.525
237.23	0.082
237.60	0.994
237.96	0.444
238.33	2.143
238.69	2.735
239.06	2.733
239.42	3.283
239.79	4.238
240.15	5.000
240.52	5.014
240.88	5.288
241.25	6.267
241.61	6.450
241.98	6.824
242.34	6.351
242.71	6.649
243.07	7.081
243.44	6.602
243.80	6.281
244.17	6.064
244.53	6.451
244.90	6.307
245.26	6.279
245.63	6.007
245.99	6.010
246.36	6.352
246.72	5.550
247.09	5.314
247.45	5.466
247.81	5.364
248.18	5.307
248.54	5.288
248.91	5.102
249.27	5.112
249.64	4.987
250.00	5.029
250.36	4.670
250.73	5.460
251.09	5.997
251.46	6.205
251.82	6.385
252.19	6.421
252.55	6.187
252.91	6.576
253.28	5.798
253.64	5.669
254.01	5.456
254.37	5.106
254.73	5.553
255.10	5.230
255.46	5.066
255.83	4.564
256.19	4.630
256.55	4.470
256.92	4.376
257.28	4.694
257.65	5.016
258.01	5.176
258.37	5.302
258.74	5.251
259.10	5.272
259.46	5.428
259.83	5.859
260.19	5.808
260.55	5.869
260.92	5.996
261.28	5.710
261.64	5.398
262.01	5.295
262.37	4.957
262.73	4.407
263.10	4.030
263.46	4.083
263.82	3.827
264.19	3.737
264.55	4.009
264.91	3.944
265.28	4.365
265.64	4.047
266.00	3.613
266.37	3.813
266.73	4.364
267.09	4.566
267.46	4.470
267.82	4.575
268.18	4.798
268.54	4.624
268.91	4.776
269.27	4.906
269.63	5.140
270.00	5.248
270.36	5.225
270.72	5.026
271.08	4.785
271.45	4.827
271.81	4.988
272.17	5.087
272.53	5.153
272.90	5.059
273.26	4.871
273.62	4.868
273.98	5.128
274.35	5.006
274.71	5.109
275.07	5.418
275.43	5.689
275.80	5.609
276.16	5.589
276.52	5.386
276.88	5.058
277.25	4.859
277.61	4.806
277.97	4.545
278.33	4.411
278.69	4.269
279.06	4.359
279.42	3.689
279.78	3.428
280.14	3.324
280.50	3.536
280.87	3.979
281.23	4.382
281.59	4.447
281.95	4.451
282.31	4.805
282.68	4.992
283.04	4.974
283.40	5.210
283.76	5.230
284.12	5.228
284.48	5.183
284.85	4.990
285.21	4.782
285.57	4.889
285.93	5.012
286.29	4.847
286.65	4.667
287.02	4.531
287.38	4.437
287.74	4.490
288.10	4.517
288.46	4.515
288.82	4.378
289.18	4.126
289.54	3.830
289.91	3.899
290.27	3.945
290.63	4.075
290.99	4.080
291.35	4.133
291.71	4.407
292.07	4.406
292.43	4.429
292.79	4.830
293.16	5.088
293.52	5.213
293.88	5.173
294.24	5.292
294.60	5.207
294.96	5.301
295.32	5.409
295.68	5.040
296.04	5.041
296.40	5.007
296.76	5.041
297.12	5.156
297.49	5.301
297.85	5.406
298.21	5.306
298.57	5.302
298.93	5.349
299.29	5.322
299.65	5.373
300.01	5.498
300.37	5.532
300.73	5.750
301.09	5.831
301.45	5.914
301.81	5.742
302.17	5.800
302.53	5.813
302.89	5.647
303.25	5.690
303.61	5.969
303.97	5.906
304.33	5.924
304.69	5.627
305.05	5.474
305.41	5.341
305.77	5.528
306.13	5.564
306.49	5.715
306.85	5.910
307.21	6.012
307.57	6.039
307.93	6.122
308.29	6.146
308.65	6.163
309.01	6.194
309.37	6.308
309.73	6.336
310.09	6.353
310.45	6.302
310.81	6.301
311.17	6.092
311.53	6.024
311.89	6.115
312.25	6.107
312.61	6.169
312.96	6.347
313.32	6.383
313.68	6.279
314.04	6.309
314.40	6.279
314.76	6.249
315.12	6.384
315.48	6.609
315.84	6.497
316.20	6.613
316.56	6.652
316.92	6.565
317.27	6.580
317.63	6.576
317.99	6.632
318.35	6.738
318.71	6.785
319.07	7.019
319.43	6.902
319.79	6.923
320.15	6.934
320.50	6.849
320.86	7.099
321.22	7.212
321.58	7.365
321.94	7.318
322.30	7.424
322.66	7.559
323.01	7.683
323.37	7.801
323.73	7.953
324.09	8.246
324.45	8.569
324.81	8.631
325.17	8.738
325.52	9.027
325.88	9.284
326.24	9.576
326.60	9.935
326.96	10.104
327.31	10.356
327.67	10.573
328.03	10.539
328.39	10.530
328.75	10.623
329.11	10.890
329.46	10.952
329.82	11.081
330.18	11.226
330.54	11.223
330.90	11.449
331.25	11.586
331.61	11.735
331.97	12.017
332.33	12.315
332.68	12.409
333.04	12.282
333.40	12.344
333.76	12.478
334.11	12.402
334.47	12.436
334.83	12.240
335.19	12.298
335.54	12.377
335.90	12.379
336.26	12.373
336.62	12.465
336.97	12.537
337.33	12.543
337.69	12.618
338.05	12.646
338.40	12.638
338.76	12.723
339.12	12.638
339.48	12.611
339.83	12.543
340.19	12.439
340.55	12.367
340.90	12.405
341.26	12.358
341.62	12.256
341.97	12.305
342.33	12.393
342.69	12.320
343.04	12.324
343.40	12.274
343.76	12.300
344.12	12.438
344.47	12.448
344.83	12.391
345.19	12.451
345.54	12.541
345.90	12.525
346.26	12.389
346.61	12.505
346.97	12.448
347.32	12.441
347.68	12.421
348.04	12.345
348.39	12.322
348.75	12.461
349.11	12.430
349.46	12.406
349.82	12.337
350.18	12.413
350.53	12.300
350.89	12.405
351.24	12.399
351.60	12.445
351.96	12.509
352.31	12.588
352.67	12.493
353.02	12.507
353.38	12.486
353.74	12.486
354.09	12.458
354.45	12.546
354.80	12.520
355.16	12.540
355.52	12.553
355.87	12.447
356.23	12.376
356.58	12.419
356.94	12.456
357.29	12.461
357.65	12.539
358.00	12.613
358.36	12.611
358.72	12.659
359.07	12.697
359.43	12.717
359.78	12.818
360.14	12.880
360.49	12.899
360.85	12.922
361.20	12.939
361.56	12.966
361.91	12.961
362.27	13.045
362.62	12.997
362.98	13.012
363.33	13.027
363.69	13.039
364.04	13.059
364.40	13.110
364.75	13.129
365.11	13.216
365.46	13.280
365.82	13.278
366.17	13.230
366.53	13.347
366.88	13.371
367.24	13.452
367.59	13.521
367.95	13.536
368.30	13.576
368.66	13.664
369.01	13.626
369.37	13.722
369.72	13.825
370.08	13.922
370.43	13.978
370.78	14.109
371.14	14.139
371.49	14.216
371.85	14.320
372.20	14.423
372.56	14.507
372.91	14.659
373.26	14.546
373.62	14.582
373.97	14.684
374.33	14.703
374.68	14.731
375.03	14.870
375.39	14.848
375.74	14.933
376.10	14.937
376.45	14.977
376.80	15.041
377.16	15.226
377.51	15.316
377.87	15.367
378.22	15.480
378.57	15.594
378.93	15.681
379.28	15.888
379.63	16.023
379.99	16.158
380.34	16.271
380.70	16.397
381.05	16.504
381.40	16.592
381.76	16.650
382.11	16.732
382.46	16.803
382.82	16.843
383.17	16.912
383.52	17.020
383.88	17.108
384.23	17.195
384.58	17.239
384.94	17.341
385.29	17.513
385.64	17.703
385.99	17.883
386.35	18.036
386.70	18.131
387.05	18.154
387.41	18.222
387.76	18.291
388.11	18.325
388.47	18.425
388.82	18.480
389.17	18.508
389.52	18.517
389.88	18.550
390.23	18.585
390.58	18.720
390.93	18.842
391.29	18.874
391.64	18.958
391.99	19.053
392.34	19.114
392.70	19.212
393.05	19.289
393.40	19.328
393.75	19.392
394.11	19.456
394.46	19.494
394.81	19.570
395.16	19.646
395.52	19.747
395.87	19.831
396.22	19.893
396.57	19.903
396.92	19.946
397.28	20.063
397.63	20.075
397.98	20.133
398.33	20.167
398.68	20.225
399.04	20.269
399.39	20.304
399.74	20.356
400.09	20.379
400.44	20.457
400.80	20.498
401.15	20.519
401.50	20.569
401.85	20.611
402.20	20.674
402.55	20.713
402.90	20.792
403.26	20.836
403.61	20.833
403.96	20.874
404.31	20.900
404.66	20.961
405.01	21.017
405.36	21.122
405.72	21.144
406.07	21.195
406.42	21.202
406.77	21.216
407.12	21.246
407.47	21.339
407.82	21.380
408.17	21.377
408.53	21.399
408.88	21.478
409.23	21.476
409.58	21.478
409.93	21.477
410.28	21.536
410.63	21.602
410.98	21.614
411.33	21.603
411.68	21.657
412.03	21.756
412.38	21.762
412.73	21.682
413.09	21.676
413.44	21.694
413.79	21.638
414.14	21.569
414.49	21.505
414.84	21.459
415.19	21.457
415.54	21.402
415.89	21.353
416.24	21.303
416.59	21.288
416.94	21.240
417.29	21.218
417.64	21.199
417.99	21.191
418.34	21.178
418.69	21.158
419.04	21.097
419.39	21.096
419.74	21.073
420.09	21.085
420.44	21.092
420.79	21.084
421.14	21.060
421.49	21.063
421.84	21.084
422.19	21.093
422.54	21.131
422.89	21.181
423.24	21.215
423.59	21.253
423.94	21.281
424.29	21.294
424.64	21.363
424.99	21.472
425.34	21.572
425.68	21.646
426.03	21.746
426.38	21.821
426.73	21.910
427.08	21.951
427.43	21.994
427.78	22.059
428.13	22.112
428.48	22.130
428.83	22.142
429.18	22.126
429.53	22.117
429.87	22.085
430.22	22.059
430.57	22.044
430.92	22.016
431.27	22.009
431.62	21.982
431.97	21.976
432.32	22.006
432.67	21.981
433.01	21.995
433.36	22.014
433.71	22.023
434.06	22.078
434.41	22.095
434.76	22.163
435.11	22.205
435.45	22.225
435.80	22.227
436.15	22.206
436.50	22.222
436.85	22.230
437.20	22.216
437.54	22.236
437.89	22.190
438.24	22.193
438.59	22.148
438.94	22.134
439.29	22.146
439.63	22.178
439.98	22.216
440.33	22.188
440.68	22.186
441.03	22.205
441.37	22.194
441.72	22.197
442.07	22.182
442.42	22.203
442.76	22.186
443.11	22.146
443.46	22.097
443.81	22.053
444.16	22.077
444.50	22.054
444.85	22.040
445.20	22.050
445.55	22.058
445.89	22.076
446.24	22.081
446.59	22.114
446.94	22.178
447.28	22.240
447.63	22.285
447.98	22.317
448.32	22.399
448.67	22.458
449.02	22.499
449.37	22.533
449.71	22.553
450.06	22.572
450.41	22.580
450.75	22.590
451.10	22.614
451.45	22.629
451.79	22.649
452.14	22.655
452.49	22.669
452.84	22.664
453.18	22.685
453.53	22.703
453.88	22.727
454.22	22.747
454.57	22.763
454.92	22.779
455.26	22.794
455.61	22.793
455.95	22.784
456.30	22.786
456.65	22.800
456.99	22.819
457.34	22.823
457.69	22.860
458.03	22.872
458.38	22.880
458.73	22.895
459.07	22.942
459.42	22.977
459.76	23.016
460.11	23.065
460.46	23.135
460.80	23.214
461.15	23.312
461.49	23.370
461.84	23.454
462.19	23.557
462.53	23.630
462.88	23.695
463.22	23.766
463.57	23.853
463.91	23.918
464.26	23.961
464.61	23.997
464.95	24.040
465.30	24.093
465.64	24.137
465.99	24.160
466.33	24.198
466.68	24.223
467.02	24.267
467.37	24.286
467.71	24.292
468.06	24.339
468.41	24.369
468.75	24.383
469.10	24.393
469.44	24.428
469.79	24.457
470.13	24.542
470.48	24.563
470.82	24.573
471.17	24.614
471.51	24.644
471.86	24.654
472.20	24.653
472.55	24.698
472.89	24.717
473.23	24.702
473.58	24.722
473.92	24.687
474.27	24.702
474.61	24.733
474.96	24.705
475.30	24.714
475.65	24.680
475.99	24.725
476.34	24.710
476.68	24.724
477.02	24.759
477.37	24.765
477.71	24.773
478.06	24.784
478.40	24.863
478.75	25.039
479.09	25.245
479.43	25.436
479.78	25.678
480.12	25.953
480.47	26.274
480.81	26.601
481.15	26.965
481.50	27.354
481.84	27.828
482.19	28.317
482.53	28.701
482.87	28.855
483.22	28.797
483.56	28.494
483.90	28.062
484.25	27.534
484.59	27.035
484.94	26.640
485.28	26.269
485.62	25.784
485.97	25.243
486.31	24.773
486.65	24.537
487.00	24.535
487.34	24.713
487.68	25.022
488.03	25.380
488.37	25.676
488.71	25.817
489.06	25.852
489.40	25.892
489.74	25.933
490.09	25.975
490.43	25.973
490.77	25.983
491.11	26.024
491.46	26.052
491.80	26.099
492.14	26.153
492.49	26.171
492.83	26.225
493.17	26.264
493.51	26.306
493.86	26.344
494.20	26.434
494.54	26.496
494.88	26.568
495.23	26.635
495.57	26.666
495.91	26.737
496.25	26.794
496.60	26.837
496.94	26.914
497.28	26.989
497.62	27.089
497.97	27.163
498.31	27.262
498.65	27.340
498.99	27.426
499.33	27.535
499.68	27.617
500.02	27.720
500.36	27.813
500.70	27.874
501.04	27.952
501.39	28.017
501.73	28.097
502.07	28.160
502.41	28.252
502.75	28.325
503.09	28.403
503.44	28.497
503.78	28.578
504.12	28.660
504.46	28.770
504.80	28.836
505.14	28.934
505.49	29.012
505.83	29.107
506.17	29.183
506.51	29.245
506.85	29.311
507.19	29.364
507.53	29.413
507.87	29.494
508.22	29.542
508.56	29.626
508.90	29.698
509.24	29.792
509.58	29.873
509.92	29.939
510.26	30.025
510.60	30.110
510.94	30.210
511.28	30.307
511.63	30.413
511.97	30.496
512.31	30.590
512.65	30.665
512.99	30.710
513.33	30.805
513.67	30.929
514.01	31.012
514.35	31.091
514.69	31.149
515.03	31.207
515.37	31.245
515.71	31.343
516.05	31.378
516.39	31.421
516.73	31.494
517.07	31.536
517.41	31.563
517.75	31.601
518.09	31.656
518.43	31.713
518.77	31.797
519.11	31.885
519.45	31.933
519.79	31.997
520.13	32.084
520.47	32.162
520.81	32.250
521.15	32.333
521.49	32.405
521.83	32.467
522.17	32.532
522.51	32.564
522.85	32.623
523.19	32.774
523.53	32.984
523.87	33.186
524.21	33.357
524.55	33.522
524.89	33.669
525.23	33.828
525.57	33.968
525.91	34.101
526.25	34.229
526.58	34.341
526.92	34.388
527.26	34.399
527.60	34.375
527.94	34.351
528.28	34.298
528.62	34.252
528.96	34.193
529.30	34.144
529.64	34.082
529.97	34.042
530.31	33.970
530.65	33.921
530.99	33.909
531.33	33.917
531.67	33.948
532.01	33.990
532.35	34.023
532.68	34.059
533.02	34.051
533.36	34.067
533.70	34.062
534.04	34.072
534.38	34.102
534.71	34.120
535.05	34.149
535.39	34.163
535.73	34.245
536.07	34.325
536.41	34.443
536.74	34.584
537.08	34.687
537.42	34.789
537.76	34.907
538.10	35.002
538.43	35.083
538.77	35.172
539.11	35.240
539.45	35.265
539.79	35.291
540.12	35.292
540.46	35.268
540.80	35.246
541.14	35.216
541.47	35.194
541.81	35.205
542.15	35.200
542.49	35.191
542.82	35.194
543.16	35.216
543.50	35.230
543.84	35.253
544.17	35.344
544.51	35.422
544.85	35.495
545.18	35.568
545.52	35.590
545.86	35.657
546.20	35.709
546.53	35.764
546.87	35.808
547.21	35.887
547.54	35.966
547.88	36.041
548.22	36.127
548.55	36.256
548.89	36.361
549.23	36.475
549.56	36.524
549.90	36.581
550.24	36.661
550.57	36.737
550.91	36.794
551.25	36.836
551.58	36.860
551.92	36.912
552.26	36.936
552.59	36.961
552.93	37.029
553.27	37.127
553.60	37.224
553.94	37.303
554.27	37.384
554.61	37.492
554.95	37.610
555.28	37.713
555.62	37.795
555.95	37.913
556.29	37.993
556.63	38.032
556.96	38.064
557.30	38.111
557.63	38.177
557.97	38.214
558.31	38.219
558.64	38.288
558.98	38.315
559.31	38.372
559.65	38.399
559.98	38.425
560.32	38.468
560.65	38.525
560.99	38.557
561.33	38.620
561.66	38.673
562.00	38.758
562.33	38.771
562.67	38.814
563.00	38.850
563.34	38.881
563.67	38.935
564.01	38.918
564.34	38.909
564.68	38.956
565.01	38.955
565.35	38.953
565.68	38.977
566.02	39.017
566.35	39.088
566.69	39.140
567.02	39.187
567.36	39.251
567.69	39.362
568.03	39.465
568.36	39.508
568.69	39.557
569.03	39.629
569.36	39.681
569.70	39.713
570.03	39.721
570.37	39.729
570.70	39.786
571.04	39.801
571.37	39.832
571.70	39.895
572.04	39.936
572.37	39.986
572.71	40.010
573.04	40.065
573.37	40.173
573.71	40.260
574.04	40.366
574.38	40.432
574.71	40.541
575.04	40.614
575.38	40.693
575.71	40.797
576.05	40.889
576.38	41.029
576.71	41.069
577.05	41.119
577.38	41.224
577.71	41.304
578.05	41.396
578.38	41.472
578.71	41.610
579.05	41.660
579.38	41.736
579.71	41.820
580.05	41.868
580.38	41.984
580.71	42.048
581.05	42.098
581.38	42.127
581.71	42.150
582.05	42.229
582.38	42.230
582.71	42.281
583.04	42.326
583.38	42.394
583.71	42.453
584.04	42.470
584.38	42.563
584.71	42.588
585.04	42.619
585.37	42.679
585.71	42.687
586.04	42.716
586.37	42.722
586.70	42.731
587.04	42.726
587.37	42.765
587.70	42.789
588.03	42.762
588.37	42.779
588.70	42.822
589.03	42.866
589.36	42.899
589.69	42.904
590.03	42.928
590.36	42.974
590.69	43.013
591.02	43.054
591.35	43.117
591.69	43.148
592.02	43.157
592.35	43.147
592.68	43.137
593.01	43.098
593.35	43.121
593.68	43.106
594.01	43.087
594.34	43.059
594.67	43.004
595.00	42.965
595.34	42.929
595.67	42.956
596.00	42.993
596.33	43.005
596.66	43.037
596.99	43.124
597.32	43.204
597.65	43.266
597.99	43.343
598.32	43.409
598.65	43.532
598.98	43.608
599.31	43.652
599.64	43.702
599.97	43.714
600.30	43.721
600.63	43.672
600.96	43.618
601.30	43.594
601.63	43.539
601.96	43.509
602.29	43.443
602.62	43.422
602.95	43.412
603.28	43.382
603.61	43.359
603.94	43.380
604.27	43.379
604.60	43.452
604.93	43.468
605.26	43.527
605.59	43.595
605.92	43.676
606.25	43.698
606.58	43.747
606.91	43.805
607.24	43.861
607.57	43.888
607.90	43.920
608.23	43.917
608.56	43.971
608.89	43.999
609.22	44.018
609.55	44.027
609.88	44.093
610.21	44.109
610.54	44.175
610.87	44.260
611.20	44.331
611.53	44.419
611.86	44.504
612.19	44.592
612.52	44.667
612.85	44.784
613.18	44.812
613.51	44.829
613.84	44.900
614.17	44.916
614.49	44.935
614.82	44.982
615.15	45.014
615.48	45.047
615.81	45.071
616.14	45.092
616.47	45.082
616.80	45.062
617.13	45.074
617.46	45.058
617.78	45.082
618.11	45.084
618.44	45.086
618.77	45.065
619.10	45.082
619.43	45.072
619.76	45.101
620.09	45.126
620.41	45.206
620.74	45.245
621.07	45.268
621.40	45.274
621.73	45.340
622.06	45.330
622.38	45.341
622.71	45.259
623.04	45.184
623.37	45.090
623.70	45.019
624.02	44.940
624.35	44.895
624.68	44.843
625.01	44.790
625.34	44.705
625.66	44.686
625.99	44.640
626.32	44.631
626.65	44.636
626.98	44.677
627.30	44.705
627.63	44.777
627.96	44.836
628.29	44.886
628.61	44.907
628.94	44.922
629.27	44.975
629.60	45.061
629.92	45.093
630.25	45.114
630.58	45.095
630.91	45.053
631.23	45.014
631.56	44.968
631.89	44.998
632.21	44.985
632.54	44.958
632.87	44.931
633.19	44.897
633.52	44.868
633.85	44.880
634.18	44.871
634.50	44.889
634.83	44.878
635.16	44.890
635.48	44.847
635.81	44.841
636.14	44.876
636.46	44.859
636.79	44.854
637.11	44.886
637.44	44.901
637.77	44.956
638.09	44.968
638.42	44.981
638.75	44.984
