OOIBase32 Version 2.0.0.6 Data File
++++++++++++++++++++++++++++++++++++
Date: 01-23-2012, 22:19:05
User: Valued Ocean Optics Customer
Spectrometer Serial Number: USB2E2917
Spectrometer Channel: Master
Integration Time (msec): 5
Spectra Averaged: 10
Boxcar Smoothing: 5
Correct for Electrical Dark: Enabled
Time Normalized: Disabled
Dual-beam Reference: Disabled
Reference Channel: Master
Temperature: Not acquired
Spectrometer Type: S2000
ADC Type: USB2000
Number of Pixels in File: 2048
Graph Title: 
>>>>>Begin Spectral Data<<<<<
180.30	0.000
180.67	0.000
181.03	384.844
181.40	-78.898
181.77	9175.867
182.14	-66.059
182.51	59.704
182.88	1347.775
183.25	398.501
183.62	-0.719
183.99	40.262
184.36	104.173
184.73	-93.464
185.10	102.288
185.46	-3.806
185.83	72.954
186.20	41.330
186.57	-2.726
186.94	16.872
187.31	157.151
187.68	-194.470
188.05	0.459
188.42	10.333
188.78	12.992
189.15	19.221
189.52	32.743
189.89	24.608
190.26	14.054
190.63	31.304
191.00	36.195
191.37	45.334
191.73	51.087
192.10	56.222
192.47	55.897
192.84	46.805
193.21	44.128
193.58	38.928
193.94	38.688
194.31	27.589
194.68	23.729
195.05	13.417
195.42	-4.669
195.79	-18.192
196.15	-12.038
196.52	-11.272
196.89	-21.240
197.26	-27.299
197.63	-42.858
198.00	-59.248
198.36	-42.060
198.73	-38.214
199.10	-23.263
199.47	-14.461
199.84	-14.606
200.20	-6.567
200.57	-29.847
200.94	-17.310
201.31	-12.753
201.68	7.017
202.04	17.846
202.41	23.703
202.78	21.740
203.15	22.094
203.51	15.046
203.88	23.139
204.25	14.664
204.62	22.102
204.98	19.153
205.35	24.784
205.72	40.388
206.09	39.841
206.46	42.103
206.82	35.628
207.19	20.877
207.56	17.776
207.92	13.360
208.29	19.223
208.66	22.121
209.03	26.983
209.39	25.750
209.76	12.425
210.13	11.335
210.50	-6.137
210.86	0.213
211.23	13.468
211.60	13.730
211.96	10.496
212.33	2.287
212.70	5.252
213.07	-7.580
213.43	-6.094
213.80	-11.385
214.17	-16.369
214.53	-3.719
214.90	-4.286
215.27	-6.286
215.63	-7.118
216.00	-8.987
216.37	-0.518
216.74	-11.607
217.10	-10.421
217.47	-20.417
217.84	-16.584
218.20	-2.895
218.57	-8.851
218.94	-15.509
219.30	-21.161
219.67	-16.421
220.04	-8.421
220.40	-14.056
220.77	-15.123
221.13	-16.436
221.50	-12.283
221.87	-13.193
222.23	-16.920
222.60	-10.002
222.97	-6.703
223.33	-2.882
223.70	-6.813
224.07	-5.698
224.43	-3.589
224.80	-1.156
225.16	1.049
225.53	2.360
225.90	0.110
226.26	-1.724
226.63	-2.274
226.99	-1.042
227.36	-1.555
227.73	-1.054
228.09	-3.537
228.46	-3.588
228.82	-3.526
229.19	-2.888
229.56	-4.468
229.92	-3.541
230.29	-2.194
230.65	-1.743
231.02	-1.272
231.38	-1.142
231.75	-1.201
232.12	1.419
232.48	2.528
232.85	3.069
233.21	2.685
233.58	4.595
233.94	6.072
234.31	5.191
234.68	4.753
235.04	4.544
235.41	3.337
235.77	3.036
236.14	2.858
236.50	0.974
236.87	0.707
237.23	0.832
237.60	0.738
237.96	-0.106
238.33	1.157
238.69	0.976
239.06	0.879
239.42	1.048
239.79	1.559
240.15	1.589
240.52	1.269
240.88	1.289
241.25	1.175
241.61	1.280
241.98	2.274
242.34	1.989
242.71	2.528
243.07	2.815
243.44	2.817
243.80	2.712
244.17	2.771
244.53	3.166
244.90	3.197
245.26	3.342
245.63	3.213
245.99	3.247
246.36	3.563
246.72	3.059
247.09	2.699
247.45	2.669
247.81	2.594
248.18	2.306
248.54	2.186
248.91	2.556
249.27	2.784
249.64	2.816
250.00	2.492
250.36	2.304
250.73	3.007
251.09	3.261
251.46	3.325
251.82	3.559
252.19	3.995
252.55	3.735
252.91	3.486
253.28	3.394
253.64	3.716
254.01	3.662
254.37	3.468
254.73	3.831
255.10	4.079
255.46	3.938
255.83	3.435
256.19	3.405
256.55	3.416
256.92	3.187
257.28	2.993
257.65	3.061
258.01	3.076
258.37	2.921
258.74	2.987
259.10	2.946
259.46	3.195
259.83	3.502
260.19	3.313
260.55	3.378
260.92	3.079
261.28	2.994
261.64	2.836
262.01	2.716
262.37	2.725
262.73	2.146
263.10	2.224
263.46	2.257
263.82	2.087
264.19	2.275
264.55	2.322
264.91	2.987
265.28	3.481
265.64	3.379
266.00	3.152
266.37	3.267
266.73	3.398
267.09	3.073
267.46	2.991
267.82	2.848
268.18	2.718
268.54	2.528
268.91	2.472
269.27	2.225
269.63	2.117
270.00	2.483
270.36	2.361
270.72	2.152
271.08	2.196
271.45	2.296
271.81	2.558
272.17	2.850
272.53	2.794
272.90	2.526
273.26	2.416
273.62	2.484
273.98	2.251
274.35	2.326
274.71	2.541
275.07	2.613
275.43	2.575
275.80	2.744
276.16	2.639
276.52	2.597
276.88	2.642
277.25	2.852
277.61	2.926
277.97	2.925
278.33	2.765
278.69	2.622
279.06	2.848
279.42	2.466
279.78	2.031
280.14	2.101
280.50	2.433
280.87	2.838
281.23	2.948
281.59	2.716
281.95	2.728
282.31	2.690
282.68	2.803
283.04	2.664
283.40	2.761
283.76	2.678
284.12	2.642
284.48	2.507
284.85	2.238
285.21	2.049
285.57	2.251
285.93	2.250
286.29	2.424
286.65	2.317
287.02	2.271
287.38	2.337
287.74	2.564
288.10	2.517
288.46	2.449
288.82	2.447
289.18	2.346
289.54	2.184
289.91	2.204
290.27	2.262
290.63	2.338
290.99	2.387
291.35	2.361
291.71	2.421
292.07	2.249
292.43	2.402
292.79	2.738
293.16	2.880
293.52	3.004
293.88	3.045
294.24	3.002
294.60	2.850
294.96	2.794
295.32	2.810
295.68	2.634
296.04	2.864
296.40	2.846
296.76	2.719
297.12	2.777
297.49	2.813
297.85	2.879
298.21	2.978
298.57	3.062
298.93	3.190
299.29	3.245
299.65	3.294
300.01	3.324
300.37	3.238
300.73	3.430
301.09	3.495
301.45	3.552
301.81	3.476
302.17	3.298
302.53	3.416
302.89	3.246
303.25	3.062
303.61	3.228
303.97	3.017
304.33	3.101
304.69	2.974
305.05	2.874
305.41	2.696
305.77	2.690
306.13	2.699
306.49	2.715
306.85	2.742
307.21	2.893
307.57	2.791
307.93	2.831
308.29	2.915
308.65	2.850
309.01	2.986
309.37	3.203
309.73	3.212
310.09	3.228
310.45	3.216
310.81	3.391
311.17	3.340
311.53	3.433
311.89	3.557
312.25	3.430
312.61	3.452
312.96	3.359
313.32	3.267
313.68	3.147
314.04	3.235
314.40	3.260
314.76	3.188
315.12	3.178
315.48	3.210
315.84	3.070
316.20	3.250
316.56	3.285
316.92	3.322
317.27	3.314
317.63	3.446
317.99	3.516
318.35	3.576
318.71	3.621
319.07	3.721
319.43	3.624
319.79	3.759
320.15	3.705
320.50	3.655
320.86	3.706
321.22	3.815
321.58	3.906
321.94	3.822
322.30	3.835
322.66	3.858
323.01	3.897
323.37	3.960
323.73	4.028
324.09	4.201
324.45	4.344
324.81	4.289
325.17	4.310
325.52	4.417
325.88	4.472
326.24	4.541
326.60	4.674
326.96	4.843
327.31	4.998
327.67	5.082
328.03	5.115
328.39	5.154
328.75	5.365
329.11	5.497
329.46	5.454
329.82	5.636
330.18	5.718
330.54	5.734
330.90	5.670
331.25	5.762
331.61	5.757
331.97	5.731
332.33	5.834
332.68	5.737
333.04	5.730
333.40	5.920
333.76	5.930
334.11	5.901
334.47	5.912
334.83	5.937
335.19	5.862
335.54	6.000
335.90	6.190
336.26	6.273
336.62	6.397
336.97	6.306
337.33	6.192
337.69	6.212
338.05	6.283
338.40	6.253
338.76	6.336
339.12	6.498
339.48	6.524
339.83	6.408
340.19	6.402
340.55	6.390
340.90	6.489
341.26	6.509
341.62	6.489
341.97	6.450
342.33	6.595
342.69	6.629
343.04	6.583
343.40	6.555
343.76	6.630
344.12	6.671
344.47	6.706
344.83	6.688
345.19	6.721
345.54	6.817
345.90	6.910
346.26	6.775
346.61	6.773
346.97	6.724
347.32	6.749
347.68	6.673
348.04	6.590
348.39	6.581
348.75	6.702
349.11	6.696
349.46	6.695
349.82	6.678
350.18	6.849
350.53	6.746
350.89	6.798
351.24	6.767
351.60	6.803
351.96	6.810
352.31	6.860
352.67	6.808
353.02	6.814
353.38	6.694
353.74	6.687
354.09	6.569
354.45	6.680
354.80	6.686
355.16	6.705
355.52	6.703
355.87	6.642
356.23	6.622
356.58	6.723
356.94	6.803
357.29	6.894
357.65	6.886
358.00	6.992
358.36	6.983
358.72	7.031
359.07	7.107
359.43	7.178
359.78	7.288
360.14	7.295
360.49	7.267
360.85	7.244
361.20	7.333
361.56	7.399
361.91	7.438
362.27	7.512
362.62	7.543
362.98	7.526
363.33	7.561
363.69	7.616
364.04	7.669
364.40	7.673
364.75	7.711
365.11	7.758
365.46	7.767
365.82	7.736
366.17	7.726
366.53	7.776
366.88	7.814
367.24	7.855
367.59	7.881
367.95	7.971
368.30	8.031
368.66	8.091
369.01	8.112
369.37	8.189
369.72	8.252
370.08	8.341
370.43	8.397
370.78	8.418
371.14	8.432
371.49	8.481
371.85	8.587
372.20	8.664
372.56	8.738
372.91	8.757
373.26	8.824
373.62	8.820
373.97	8.916
374.33	8.951
374.68	9.020
375.03	9.128
375.39	9.198
375.74	9.214
376.10	9.218
376.45	9.319
376.80	9.394
377.16	9.486
377.51	9.665
377.87	9.689
378.22	9.787
378.57	9.930
378.93	9.978
379.28	10.087
379.63	10.189
379.99	10.359
380.34	10.454
380.70	10.569
381.05	10.678
381.40	10.725
381.76	10.850
382.11	10.951
382.46	11.008
382.82	11.135
383.17	11.248
383.52	11.343
383.88	11.417
384.23	11.508
384.58	11.600
384.94	11.657
385.29	11.798
385.64	11.897
385.99	12.036
386.35	12.219
386.70	12.383
387.05	12.495
387.41	12.631
387.76	12.769
388.11	12.797
388.47	12.915
388.82	13.030
389.17	13.107
389.52	13.219
389.88	13.335
390.23	13.408
390.58	13.488
390.93	13.574
391.29	13.702
391.64	13.796
391.99	13.969
392.34	14.086
392.70	14.202
393.05	14.319
393.40	14.421
393.75	14.499
394.11	14.568
394.46	14.677
394.81	14.778
395.16	14.802
395.52	14.892
395.87	14.942
396.22	15.019
396.57	15.109
396.92	15.186
397.28	15.310
397.63	15.380
397.98	15.520
398.33	15.624
398.68	15.736
399.04	15.862
399.39	15.981
399.74	16.124
400.09	16.228
400.44	16.321
400.80	16.438
401.15	16.526
401.50	16.630
401.85	16.725
402.20	16.785
402.55	16.876
402.90	16.955
403.26	17.052
403.61	17.135
403.96	17.252
404.31	17.357
404.66	17.448
405.01	17.528
405.36	17.655
405.72	17.733
406.07	17.870
406.42	17.975
406.77	18.093
407.12	18.140
407.47	18.243
407.82	18.307
408.17	18.399
408.53	18.513
408.88	18.594
409.23	18.667
409.58	18.723
409.93	18.766
410.28	18.863
410.63	18.949
410.98	19.101
411.33	19.135
411.68	19.226
412.03	19.312
412.38	19.363
412.73	19.425
413.09	19.489
413.44	19.600
413.79	19.682
414.14	19.730
414.49	19.742
414.84	19.769
415.19	19.837
415.54	19.864
415.89	19.891
416.24	19.927
416.59	19.974
416.94	19.990
417.29	20.009
417.64	20.030
417.99	20.060
418.34	20.115
418.69	20.135
419.04	20.159
419.39	20.235
419.74	20.279
420.09	20.332
420.44	20.378
420.79	20.431
421.14	20.463
421.49	20.526
421.84	20.576
422.19	20.614
422.54	20.686
422.89	20.743
423.24	20.769
423.59	20.830
423.94	20.895
424.29	20.941
424.64	21.035
424.99	21.130
425.34	21.222
425.68	21.324
426.03	21.459
426.38	21.542
426.73	21.707
427.08	21.807
427.43	21.907
427.78	21.950
428.13	22.065
428.48	22.105
428.83	22.155
429.18	22.149
429.53	22.176
429.87	22.199
430.22	22.211
430.57	22.209
430.92	22.239
431.27	22.259
431.62	22.288
431.97	22.291
432.32	22.317
432.67	22.351
433.01	22.421
433.36	22.441
433.71	22.490
434.06	22.537
434.41	22.594
434.76	22.636
435.11	22.673
435.45	22.724
435.80	22.772
436.15	22.788
436.50	22.809
436.85	22.834
437.20	22.889
437.54	22.898
437.89	22.919
438.24	22.914
438.59	22.921
438.94	22.965
439.29	22.999
439.63	23.035
439.98	23.105
440.33	23.146
440.68	23.192
441.03	23.190
441.37	23.197
441.72	23.238
442.07	23.250
442.42	23.292
442.76	23.279
443.11	23.288
443.46	23.274
443.81	23.268
444.16	23.292
444.50	23.279
444.85	23.293
445.20	23.308
445.55	23.302
445.89	23.336
446.24	23.341
446.59	23.386
446.94	23.420
447.28	23.447
447.63	23.507
447.98	23.564
448.32	23.631
448.67	23.689
449.02	23.747
449.37	23.814
449.71	23.850
450.06	23.903
450.41	23.939
450.75	23.948
451.10	23.964
451.45	23.988
451.79	23.958
452.14	23.974
452.49	24.011
452.84	24.070
453.18	24.118
453.53	24.139
453.88	24.155
454.22	24.143
454.57	24.158
454.92	24.232
455.26	24.245
455.61	24.289
455.95	24.303
456.30	24.309
456.65	24.302
456.99	24.307
457.34	24.367
457.69	24.403
458.03	24.413
458.38	24.453
458.73	24.467
459.07	24.517
459.42	24.551
459.76	24.586
460.11	24.643
460.46	24.731
460.80	24.818
461.15	24.873
461.49	24.933
461.84	25.062
462.19	25.158
462.53	25.246
462.88	25.269
463.22	25.318
463.57	25.406
463.91	25.459
464.26	25.480
464.61	25.475
464.95	25.532
465.30	25.588
465.64	25.616
465.99	25.650
466.33	25.678
466.68	25.749
467.02	25.803
467.37	25.839
467.71	25.875
468.06	25.915
468.41	25.956
468.75	25.981
469.10	26.001
469.44	26.043
469.79	26.071
470.13	26.149
470.48	26.165
470.82	26.211
471.17	26.232
471.51	26.269
471.86	26.285
472.20	26.339
472.55	26.376
472.89	26.408
473.23	26.428
473.58	26.455
473.92	26.433
474.27	26.460
474.61	26.479
474.96	26.487
475.30	26.484
475.65	26.504
475.99	26.535
476.34	26.532
476.68	26.558
477.02	26.601
477.37	26.622
477.71	26.649
478.06	26.712
478.40	26.789
478.75	26.977
479.09	27.201
479.43	27.447
479.78	27.726
480.12	28.070
480.47	28.448
480.81	28.840
481.15	29.262
481.50	29.698
481.84	30.216
482.19	30.767
482.53	31.196
482.87	31.418
483.22	31.369
483.56	31.077
483.90	30.609
484.25	30.046
484.59	29.485
484.94	29.072
485.28	28.675
485.62	28.151
485.97	27.578
486.31	27.101
486.65	26.809
487.00	26.772
487.34	26.961
487.68	27.272
488.03	27.623
488.37	27.949
488.71	28.067
489.06	28.103
489.40	28.128
489.74	28.136
490.09	28.153
490.43	28.161
490.77	28.175
491.11	28.186
491.46	28.214
491.80	28.266
492.14	28.298
492.49	28.291
492.83	28.300
493.17	28.322
493.51	28.372
493.86	28.396
494.20	28.446
494.54	28.502
494.88	28.571
495.23	28.633
495.57	28.676
495.91	28.738
496.25	28.805
496.60	28.874
496.94	28.933
497.28	28.985
497.62	29.063
497.97	29.129
498.31	29.233
498.65	29.276
498.99	29.348
499.33	29.430
499.68	29.508
500.02	29.624
500.36	29.694
500.70	29.757
501.04	29.847
501.39	29.877
501.73	29.975
502.07	30.033
502.41	30.120
502.75	30.140
503.09	30.216
503.44	30.278
503.78	30.338
504.12	30.413
504.46	30.496
504.80	30.540
505.14	30.624
505.49	30.663
505.83	30.733
506.17	30.825
506.51	30.910
506.85	30.944
507.19	31.011
507.53	31.063
507.87	31.106
508.22	31.164
508.56	31.211
508.90	31.293
509.24	31.374
509.58	31.459
509.92	31.497
510.26	31.568
510.60	31.676
510.94	31.734
511.28	31.801
511.63	31.901
511.97	31.975
512.31	32.086
512.65	32.124
512.99	32.205
513.33	32.290
513.67	32.402
514.01	32.498
514.35	32.562
514.69	32.628
515.03	32.689
515.37	32.743
515.71	32.836
516.05	32.874
516.39	32.921
516.73	32.964
517.07	32.996
517.41	33.013
517.75	33.021
518.09	33.058
518.43	33.099
518.77	33.145
519.11	33.205
519.45	33.229
519.79	33.300
520.13	33.389
520.47	33.440
520.81	33.479
521.15	33.579
521.49	33.679
521.83	33.739
522.17	33.836
522.51	33.916
522.85	33.984
523.19	34.129
523.53	34.329
523.87	34.531
524.21	34.743
524.55	34.960
524.89	35.114
525.23	35.295
525.57	35.440
525.91	35.572
526.25	35.715
526.58	35.843
526.92	35.919
527.26	35.941
527.60	35.945
527.94	35.910
528.28	35.860
528.62	35.807
528.96	35.741
529.30	35.701
529.64	35.622
529.97	35.513
530.31	35.424
530.65	35.350
530.99	35.300
531.33	35.266
531.67	35.295
532.01	35.314
532.35	35.338
532.68	35.323
533.02	35.315
533.36	35.341
533.70	35.370
534.04	35.369
534.38	35.402
534.71	35.432
535.05	35.454
535.39	35.449
535.73	35.443
536.07	35.483
536.41	35.596
536.74	35.664
537.08	35.733
537.42	35.825
537.76	35.953
538.10	36.015
538.43	36.121
538.77	36.207
539.11	36.297
539.45	36.376
539.79	36.427
540.12	36.455
540.46	36.451
540.80	36.445
541.14	36.424
541.47	36.379
541.81	36.387
542.15	36.351
542.49	36.322
542.82	36.281
543.16	36.261
543.50	36.249
543.84	36.227
544.17	36.260
544.51	36.291
544.85	36.358
545.18	36.416
545.52	36.434
545.86	36.461
546.20	36.469
546.53	36.510
546.87	36.560
547.21	36.591
547.54	36.639
547.88	36.700
548.22	36.750
548.55	36.789
548.89	36.853
549.23	36.912
549.56	36.944
549.90	37.064
550.24	37.100
550.57	37.107
550.91	37.140
551.25	37.193
551.58	37.229
551.92	37.291
552.26	37.346
552.59	37.371
552.93	37.396
553.27	37.456
553.60	37.491
553.94	37.561
554.27	37.634
554.61	37.709
554.95	37.764
555.28	37.829
555.62	37.905
555.95	37.954
556.29	38.033
556.63	38.108
556.96	38.125
557.30	38.147
557.63	38.194
557.97	38.243
558.31	38.266
558.64	38.332
558.98	38.369
559.31	38.389
559.65	38.406
559.98	38.410
560.32	38.423
560.65	38.468
560.99	38.520
561.33	38.558
561.66	38.570
562.00	38.625
562.33	38.620
562.67	38.678
563.00	38.711
563.34	38.732
563.67	38.767
564.01	38.769
564.34	38.777
564.68	38.786
565.01	38.777
565.35	38.834
565.68	38.843
566.02	38.842
566.35	38.847
566.69	38.878
567.02	38.929
567.36	38.960
567.69	39.002
568.03	39.062
568.36	39.114
568.69	39.111
569.03	39.127
569.36	39.168
569.70	39.200
570.03	39.233
570.37	39.225
570.70	39.249
571.04	39.278
571.37	39.284
571.70	39.322
572.04	39.329
572.37	39.398
572.71	39.430
573.04	39.461
573.37	39.514
573.71	39.554
574.04	39.611
574.38	39.655
574.71	39.687
575.04	39.782
575.38	39.853
575.71	39.923
576.05	39.996
576.38	40.067
576.71	40.127
577.05	40.194
577.38	40.284
577.71	40.356
578.05	40.411
578.38	40.497
578.71	40.575
579.05	40.578
579.38	40.667
579.71	40.710
580.05	40.754
580.38	40.818
580.71	40.872
581.05	40.907
581.38	40.949
581.71	41.009
582.05	41.006
582.38	41.002
582.71	41.064
583.04	41.040
583.38	41.059
583.71	41.080
584.04	41.099
584.38	41.123
584.71	41.067
585.04	41.095
585.37	41.090
585.71	41.148
586.04	41.185
586.37	41.200
586.70	41.242
587.04	41.216
587.37	41.207
587.70	41.194
588.03	41.219
588.37	41.277
588.70	41.303
589.03	41.309
589.36	41.303
589.69	41.284
590.03	41.263
590.36	41.267
590.69	41.319
591.02	41.359
591.35	41.383
591.69	41.361
592.02	41.335
592.35	41.309
592.68	41.317
593.01	41.284
593.35	41.287
593.68	41.272
594.01	41.246
594.34	41.261
594.67	41.226
595.00	41.194
595.34	41.133
595.67	41.132
596.00	41.116
596.33	41.092
596.66	41.108
596.99	41.080
597.32	41.130
597.65	41.163
597.99	41.139
598.32	41.152
598.65	41.185
598.98	41.274
599.31	41.303
599.64	41.325
599.97	41.358
600.30	41.348
600.63	41.392
600.96	41.330
601.30	41.265
601.63	41.212
601.96	41.200
602.29	41.166
602.62	41.122
602.95	41.116
603.28	41.095
603.61	41.083
603.94	41.055
604.27	41.034
604.60	41.023
604.93	41.060
605.26	41.084
605.59	41.086
605.92	41.089
606.25	41.112
606.58	41.122
606.91	41.148
607.24	41.161
607.57	41.162
607.90	41.145
608.23	41.167
608.56	41.171
608.89	41.186
609.22	41.172
609.55	41.201
609.88	41.182
610.21	41.148
610.54	41.157
610.87	41.163
611.20	41.240
611.53	41.285
611.86	41.349
612.19	41.398
612.52	41.420
612.85	41.476
613.18	41.444
613.51	41.463
613.84	41.495
614.17	41.500
614.49	41.467
614.82	41.447
615.15	41.378
615.48	41.348
615.81	41.294
616.14	41.251
616.47	41.250
616.80	41.255
617.13	41.226
617.46	41.170
617.78	41.130
618.11	41.100
618.44	41.035
618.77	41.014
619.10	40.980
619.43	40.979
619.76	41.002
620.09	40.975
620.41	40.999
620.74	41.029
621.07	41.014
621.40	40.979
621.73	40.955
622.06	40.940
622.38	40.923
622.71	40.833
623.04	40.737
623.37	40.638
623.70	40.550
624.02	40.452
624.35	40.412
624.68	40.386
625.01	40.324
625.34	40.273
625.66	40.246
625.99	40.243
626.32	40.250
626.65	40.260
626.98	40.250
627.30	40.272
627.63	40.274
627.96	40.245
628.29	40.227
628.61	40.228
628.94	40.249
629.27	40.240
629.60	40.222
629.92	40.134
630.25	40.110
630.58	40.100
630.91	40.027
631.23	39.995
631.56	39.933
631.89	39.953
632.21	39.946
632.54	39.868
632.87	39.845
633.19	39.780
633.52	39.789
633.85	39.780
634.18	39.752
634.50	39.740
634.83	39.737
635.16	39.738
635.48	39.656
635.81	39.592
636.14	39.602
636.46	39.600
636.79	39.590
637.11	39.579
637.44	39.538
637.77	39.519
638.09	39.491
638.42	39.422
638.75	39.355
639.07	39.355
639.40	39.326
639.73	39.341
640.05	39.332
640.38	39.354
640.70	39.342
641.03	39.314
641.36	39.331
