OOIBase32 Version 2.0.0.6 Data File
++++++++++++++++++++++++++++++++++++
Date: 01-23-2012, 21:41:50
User: Valued Ocean Optics Customer
Spectrometer Serial Number: USB2E2917
Spectrometer Channel: Master
Integration Time (msec): 5
Spectra Averaged: 10
Boxcar Smoothing: 5
Correct for Electrical Dark: Enabled
Time Normalized: Disabled
Dual-beam Reference: Disabled
Reference Channel: Master
Temperature: Not acquired
Spectrometer Type: S2000
ADC Type: USB2000
Number of Pixels in File: 2048
Graph Title: 
>>>>>Begin Spectral Data<<<<<
180.30	0.000
180.67	0.000
181.03	320.663
181.40	72.520
181.77	-8807.867
182.14	125.820
182.51	37.479
182.88	-881.462
183.25	-239.815
183.62	33.526
183.99	103.817
184.36	252.671
184.73	188.252
185.10	115.964
185.46	68.019
185.83	131.756
186.20	37.479
186.57	407.173
186.94	-44.117
187.31	125.496
187.68	-407.735
188.05	58.290
188.42	50.425
188.78	67.692
189.15	45.924
189.52	49.475
189.89	34.465
190.26	24.894
190.63	35.315
191.00	34.447
191.37	31.871
191.73	36.456
192.10	42.708
192.47	30.303
192.84	31.015
193.21	34.550
193.58	38.139
193.94	43.358
194.31	31.577
194.68	33.434
195.05	31.249
195.42	24.774
195.79	24.057
196.15	21.440
196.52	30.339
196.89	16.152
197.26	18.069
197.63	11.174
198.00	-4.719
198.36	-4.430
198.73	-12.397
199.10	-6.934
199.47	1.714
199.84	-8.599
200.20	2.485
200.57	-8.239
200.94	-2.081
201.31	-23.007
201.68	-6.969
202.04	7.759
202.41	33.948
202.78	38.112
203.15	33.770
203.51	11.194
203.88	32.250
204.25	22.777
204.62	23.600
204.98	39.139
205.35	58.651
205.72	68.100
206.09	48.504
206.46	47.973
206.82	59.218
207.19	54.673
207.56	61.400
207.92	55.393
208.29	60.282
208.66	62.694
209.03	53.632
209.39	39.633
209.76	24.507
210.13	31.022
210.50	15.989
210.86	7.051
211.23	23.699
211.60	19.139
211.96	17.220
212.33	4.186
212.70	16.554
213.07	13.337
213.43	26.990
213.80	29.898
214.17	25.252
214.53	27.726
214.90	35.157
215.27	28.843
215.63	30.305
216.00	38.519
216.37	44.502
216.74	43.788
217.10	44.211
217.47	45.226
217.84	43.144
218.20	45.627
218.57	53.286
218.94	40.345
219.30	38.068
219.67	40.044
220.04	29.847
220.40	19.935
220.77	10.492
221.13	6.468
221.50	-1.847
221.87	1.366
222.23	-3.746
222.60	-4.912
222.97	-6.569
223.33	-6.667
223.70	-4.646
224.07	-0.272
224.43	2.348
224.80	5.150
225.16	7.376
225.53	9.396
225.90	5.686
226.26	5.260
226.63	4.089
226.99	6.109
227.36	8.444
227.73	8.953
228.09	7.066
228.46	7.927
228.82	7.547
229.19	5.822
229.56	5.821
229.92	7.640
230.29	9.050
230.65	9.694
231.02	8.926
231.38	6.390
231.75	4.012
232.12	6.069
232.48	6.805
232.85	8.012
233.21	10.070
233.58	9.115
233.94	10.370
234.31	8.552
234.68	6.242
235.04	6.141
235.41	7.216
235.77	9.011
236.14	7.735
236.50	5.937
236.87	5.047
237.23	2.715
237.60	3.073
237.96	1.741
238.33	3.507
238.69	4.442
239.06	3.552
239.42	3.618
239.79	3.218
240.15	3.226
240.52	3.548
240.88	3.429
241.25	4.182
241.61	3.991
241.98	4.904
242.34	4.364
242.71	4.943
243.07	5.636
243.44	5.337
243.80	5.160
244.17	5.280
244.53	5.302
244.90	4.872
245.26	4.854
245.63	4.650
245.99	4.179
246.36	4.373
246.72	3.803
247.09	3.458
247.45	3.392
247.81	3.360
248.18	3.114
248.54	3.170
248.91	3.452
249.27	3.829
249.64	4.030
250.00	4.478
250.36	4.640
250.73	5.199
251.09	5.504
251.46	5.856
251.82	5.951
252.19	6.464
252.55	5.988
252.91	6.424
253.28	5.389
253.64	5.572
254.01	5.338
254.37	4.697
254.73	4.832
255.10	5.107
255.46	4.999
255.83	4.798
256.19	4.878
256.55	4.709
256.92	4.428
257.28	4.560
257.65	4.530
258.01	4.689
258.37	4.787
258.74	4.556
259.10	4.259
259.46	4.362
259.83	4.705
260.19	4.614
260.55	4.783
260.92	4.731
261.28	4.710
261.64	4.724
262.01	4.420
262.37	4.204
262.73	3.943
263.10	4.167
263.46	4.390
263.82	3.929
264.19	3.483
264.55	3.438
264.91	3.871
265.28	4.074
265.64	4.043
266.00	3.847
266.37	3.857
266.73	4.543
267.09	4.472
267.46	4.301
267.82	4.264
268.18	4.575
268.54	4.634
268.91	4.631
269.27	4.671
269.63	4.681
270.00	4.655
270.36	4.600
270.72	4.256
271.08	4.068
271.45	3.938
271.81	4.125
272.17	3.996
272.53	3.781
272.90	3.530
273.26	3.354
273.62	3.149
273.98	3.389
274.35	3.432
274.71	3.529
275.07	3.529
275.43	3.590
275.80	3.623
276.16	3.865
276.52	3.725
276.88	3.857
277.25	3.669
277.61	3.961
277.97	3.893
278.33	3.754
278.69	3.624
279.06	4.059
279.42	3.749
279.78	3.373
280.14	3.260
280.50	3.449
280.87	3.416
281.23	3.770
281.59	3.680
281.95	3.589
282.31	3.744
282.68	3.719
283.04	3.540
283.40	3.758
283.76	3.742
284.12	3.679
284.48	3.593
284.85	3.433
285.21	3.240
285.57	3.321
285.93	3.415
286.29	3.299
286.65	3.365
287.02	3.405
287.38	3.314
287.74	3.634
288.10	3.604
288.46	3.659
288.82	3.651
289.18	3.528
289.54	3.176
289.91	3.136
290.27	3.166
290.63	3.176
290.99	3.153
291.35	3.241
291.71	3.318
292.07	3.205
292.43	3.247
292.79	3.623
293.16	3.742
293.52	3.933
293.88	4.008
294.24	4.186
294.60	4.287
294.96	4.268
295.32	4.218
295.68	3.923
296.04	4.148
296.40	4.127
296.76	4.113
297.12	4.273
297.49	4.294
297.85	4.334
298.21	4.342
298.57	4.272
298.93	4.429
299.29	4.592
299.65	4.774
300.01	4.989
300.37	5.107
300.73	5.342
301.09	5.375
301.45	5.545
301.81	5.597
302.17	5.629
302.53	5.636
302.89	5.527
303.25	5.448
303.61	5.694
303.97	5.584
304.33	5.562
304.69	5.317
305.05	5.222
305.41	5.188
305.77	5.157
306.13	5.055
306.49	5.210
306.85	5.260
307.21	5.345
307.57	5.206
307.93	5.057
308.29	5.163
308.65	5.163
309.01	5.252
309.37	5.184
309.73	5.158
310.09	5.186
310.45	5.159
310.81	5.223
311.17	5.105
311.53	5.155
311.89	5.398
312.25	5.376
312.61	5.469
312.96	5.569
313.32	5.744
313.68	5.855
314.04	6.013
314.40	5.959
314.76	6.047
315.12	6.333
315.48	6.435
315.84	6.322
316.20	6.557
316.56	6.595
316.92	6.448
317.27	6.331
317.63	6.283
317.99	6.258
318.35	6.304
318.71	6.259
319.07	6.089
319.43	6.105
319.79	6.166
320.15	6.112
320.50	6.049
320.86	6.296
321.22	6.546
321.58	6.736
321.94	6.774
322.30	7.024
322.66	7.184
323.01	7.311
323.37	7.320
323.73	7.550
324.09	7.626
324.45	7.744
324.81	7.689
325.17	7.679
325.52	7.777
325.88	7.889
326.24	7.954
326.60	8.096
326.96	8.276
327.31	8.438
327.67	8.397
328.03	8.492
328.39	8.607
328.75	8.691
329.11	8.892
329.46	8.927
329.82	9.051
330.18	9.197
330.54	9.189
330.90	9.286
331.25	9.312
331.61	9.279
331.97	9.337
332.33	9.504
332.68	9.543
333.04	9.550
333.40	9.644
333.76	9.646
334.11	9.489
334.47	9.477
334.83	9.405
335.19	9.443
335.54	9.690
335.90	9.758
336.26	9.813
336.62	9.995
336.97	9.922
337.33	9.919
337.69	9.857
338.05	9.937
338.40	9.956
338.76	9.980
339.12	9.948
339.48	9.901
339.83	9.822
340.19	9.701
340.55	9.571
340.90	9.684
341.26	9.668
341.62	9.790
341.97	9.891
342.33	9.974
342.69	9.974
343.04	9.990
343.40	9.968
343.76	10.034
344.12	10.136
344.47	10.223
344.83	10.090
345.19	10.097
345.54	10.118
345.90	10.128
346.26	10.108
346.61	10.193
346.97	10.194
347.32	10.242
347.68	10.152
348.04	10.113
348.39	10.187
348.75	10.347
349.11	10.393
349.46	10.321
349.82	10.261
350.18	10.321
350.53	10.244
350.89	10.263
351.24	10.236
351.60	10.302
351.96	10.283
352.31	10.219
352.67	10.175
353.02	10.148
353.38	10.134
353.74	10.096
354.09	10.000
354.45	10.135
354.80	10.177
355.16	10.190
355.52	10.221
355.87	10.217
356.23	10.207
356.58	10.359
356.94	10.344
357.29	10.405
357.65	10.407
358.00	10.441
358.36	10.425
358.72	10.438
359.07	10.427
359.43	10.487
359.78	10.588
360.14	10.569
360.49	10.541
360.85	10.574
361.20	10.612
361.56	10.714
361.91	10.762
362.27	10.757
362.62	10.756
362.98	10.795
363.33	10.763
363.69	10.707
364.04	10.807
364.40	10.864
364.75	10.911
365.11	10.990
365.46	11.017
365.82	11.020
366.17	11.074
366.53	11.163
366.88	11.199
367.24	11.311
367.59	11.384
367.95	11.464
368.30	11.431
368.66	11.509
369.01	11.567
369.37	11.633
369.72	11.720
370.08	11.714
370.43	11.725
370.78	11.781
371.14	11.833
371.49	11.984
371.85	12.062
372.20	12.156
372.56	12.211
372.91	12.207
373.26	12.228
373.62	12.301
373.97	12.445
374.33	12.564
374.68	12.611
375.03	12.684
375.39	12.667
375.74	12.720
376.10	12.764
376.45	12.865
376.80	13.061
377.16	13.189
377.51	13.305
377.87	13.387
378.22	13.499
378.57	13.677
378.93	13.774
379.28	13.983
379.63	14.097
379.99	14.260
380.34	14.380
380.70	14.446
381.05	14.561
381.40	14.686
381.76	14.835
382.11	14.937
382.46	15.006
382.82	15.139
383.17	15.210
383.52	15.342
383.88	15.395
384.23	15.514
384.58	15.657
384.94	15.776
385.29	15.922
385.64	16.052
385.99	16.208
386.35	16.403
386.70	16.499
387.05	16.619
387.41	16.746
387.76	16.887
388.11	17.010
388.47	17.142
388.82	17.286
389.17	17.357
389.52	17.483
389.88	17.587
390.23	17.678
390.58	17.832
390.93	17.936
391.29	18.045
391.64	18.192
391.99	18.305
392.34	18.384
392.70	18.505
393.05	18.654
393.40	18.731
393.75	18.822
394.11	18.914
394.46	18.969
394.81	19.067
395.16	19.164
395.52	19.283
395.87	19.358
396.22	19.433
396.57	19.485
396.92	19.546
397.28	19.626
397.63	19.703
397.98	19.833
398.33	19.978
398.68	20.096
399.04	20.151
399.39	20.216
399.74	20.326
400.09	20.405
400.44	20.460
400.80	20.536
401.15	20.637
401.50	20.714
401.85	20.768
402.20	20.858
402.55	20.923
402.90	21.032
403.26	21.152
403.61	21.213
403.96	21.327
404.31	21.440
404.66	21.511
405.01	21.602
405.36	21.735
405.72	21.802
406.07	21.855
406.42	21.955
406.77	22.015
407.12	22.038
407.47	22.112
407.82	22.157
408.17	22.203
408.53	22.263
408.88	22.297
409.23	22.321
409.58	22.375
409.93	22.442
410.28	22.493
410.63	22.549
410.98	22.670
411.33	22.720
411.68	22.773
412.03	22.809
412.38	22.856
412.73	22.878
413.09	22.851
413.44	22.857
413.79	22.864
414.14	22.882
414.49	22.879
414.84	22.822
415.19	22.814
415.54	22.826
415.89	22.822
416.24	22.820
416.59	22.818
416.94	22.822
417.29	22.824
417.64	22.826
417.99	22.832
418.34	22.849
418.69	22.860
419.04	22.864
419.39	22.885
419.74	22.900
420.09	22.918
420.44	22.947
420.79	23.003
421.14	23.025
421.49	23.047
421.84	23.079
422.19	23.105
422.54	23.162
422.89	23.204
423.24	23.244
423.59	23.285
423.94	23.340
424.29	23.363
424.64	23.404
424.99	23.501
425.34	23.570
425.68	23.662
426.03	23.763
426.38	23.794
426.73	23.912
427.08	23.961
427.43	24.095
427.78	24.147
428.13	24.255
428.48	24.309
428.83	24.327
429.18	24.338
429.53	24.329
429.87	24.345
430.22	24.344
430.57	24.377
430.92	24.404
431.27	24.404
431.62	24.411
431.97	24.435
432.32	24.457
432.67	24.509
433.01	24.549
433.36	24.597
433.71	24.635
434.06	24.708
434.41	24.754
434.76	24.840
435.11	24.867
435.45	24.920
435.80	24.938
436.15	24.963
436.50	24.978
436.85	25.013
437.20	25.032
437.54	25.057
437.89	25.066
438.24	25.074
438.59	25.062
438.94	25.080
439.29	25.114
439.63	25.123
439.98	25.174
440.33	25.188
440.68	25.223
441.03	25.248
441.37	25.258
441.72	25.277
442.07	25.241
442.42	25.245
442.76	25.270
443.11	25.268
443.46	25.262
443.81	25.238
444.16	25.233
444.50	25.225
444.85	25.206
445.20	25.217
445.55	25.238
445.89	25.283
446.24	25.281
446.59	25.305
446.94	25.317
447.28	25.375
447.63	25.411
447.98	25.462
448.32	25.535
448.67	25.591
449.02	25.623
449.37	25.669
449.71	25.679
450.06	25.731
450.41	25.746
450.75	25.820
451.10	25.817
451.45	25.855
451.79	25.864
452.14	25.848
452.49	25.871
452.84	25.914
453.18	25.952
453.53	26.001
453.88	26.043
454.22	26.088
454.57	26.096
454.92	26.149
455.26	26.195
455.61	26.245
455.95	26.284
456.30	26.311
456.65	26.326
456.99	26.339
457.34	26.384
457.69	26.411
458.03	26.442
458.38	26.476
458.73	26.501
459.07	26.546
459.42	26.585
459.76	26.619
460.11	26.684
460.46	26.774
460.80	26.854
461.15	26.922
461.49	26.988
461.84	27.043
462.19	27.165
462.53	27.262
462.88	27.324
463.22	27.411
463.57	27.505
463.91	27.557
464.26	27.585
464.61	27.629
464.95	27.680
465.30	27.741
465.64	27.807
465.99	27.794
466.33	27.842
466.68	27.878
467.02	27.914
467.37	27.955
467.71	28.007
468.06	28.055
468.41	28.097
468.75	28.130
469.10	28.182
469.44	28.226
469.79	28.277
470.13	28.327
470.48	28.352
470.82	28.398
471.17	28.434
471.51	28.471
471.86	28.467
472.20	28.505
472.55	28.542
472.89	28.575
473.23	28.584
473.58	28.608
473.92	28.605
474.27	28.635
474.61	28.634
474.96	28.623
475.30	28.617
475.65	28.655
475.99	28.680
476.34	28.680
476.68	28.669
477.02	28.696
477.37	28.732
477.71	28.802
478.06	28.880
478.40	28.995
478.75	29.202
479.09	29.430
479.43	29.688
479.78	30.010
480.12	30.383
480.47	30.803
480.81	31.226
481.15	31.691
481.50	32.151
481.84	32.712
482.19	33.310
482.53	33.792
482.87	34.060
483.22	34.016
483.56	33.696
483.90	33.201
484.25	32.582
484.59	32.006
484.94	31.555
485.28	31.133
485.62	30.567
485.97	29.949
486.31	29.426
486.65	29.115
487.00	29.097
487.34	29.295
487.68	29.637
488.03	30.052
488.37	30.401
488.71	30.550
489.06	30.590
489.40	30.633
489.74	30.646
490.09	30.672
490.43	30.654
490.77	30.669
491.11	30.705
491.46	30.731
491.80	30.773
492.14	30.807
492.49	30.795
492.83	30.816
493.17	30.854
493.51	30.911
493.86	30.950
494.20	31.065
494.54	31.122
494.88	31.178
495.23	31.260
495.57	31.329
495.91	31.401
496.25	31.469
496.60	31.522
496.94	31.590
497.28	31.667
497.62	31.735
497.97	31.782
498.31	31.886
498.65	31.983
498.99	32.081
499.33	32.184
499.68	32.282
500.02	32.402
500.36	32.508
500.70	32.599
501.04	32.687
501.39	32.779
501.73	32.857
502.07	32.944
502.41	33.041
502.75	33.121
503.09	33.235
503.44	33.317
503.78	33.393
504.12	33.494
504.46	33.599
504.80	33.718
505.14	33.810
505.49	33.920
505.83	34.003
506.17	34.077
506.51	34.149
506.85	34.195
507.19	34.292
507.53	34.391
507.87	34.480
508.22	34.532
508.56	34.593
508.90	34.689
509.24	34.759
509.58	34.854
509.92	34.961
510.26	35.068
510.60	35.195
510.94	35.284
511.28	35.362
511.63	35.474
511.97	35.591
512.31	35.666
512.65	35.749
512.99	35.859
513.33	35.956
513.67	36.053
514.01	36.157
514.35	36.236
514.69	36.324
515.03	36.401
515.37	36.470
515.71	36.546
516.05	36.628
516.39	36.679
516.73	36.734
517.07	36.783
517.41	36.822
517.75	36.843
518.09	36.866
518.43	36.915
518.77	36.981
519.11	37.045
519.45	37.104
519.79	37.155
520.13	37.264
520.47	37.348
520.81	37.436
521.15	37.547
521.49	37.649
521.83	37.740
522.17	37.801
522.51	37.887
522.85	37.984
523.19	38.162
523.53	38.401
523.87	38.619
524.21	38.853
524.55	39.066
524.89	39.244
525.23	39.439
525.57	39.625
525.91	39.799
526.25	39.958
526.58	40.076
526.92	40.138
527.26	40.140
527.60	40.123
527.94	40.081
528.28	40.031
528.62	39.992
528.96	39.924
529.30	39.860
529.64	39.782
529.97	39.684
530.31	39.611
530.65	39.571
530.99	39.567
531.33	39.559
531.67	39.618
532.01	39.662
532.35	39.669
532.68	39.674
533.02	39.676
533.36	39.702
533.70	39.721
534.04	39.733
534.38	39.739
534.71	39.781
535.05	39.819
535.39	39.776
535.73	39.793
536.07	39.875
536.41	39.996
536.74	40.099
537.08	40.180
537.42	40.269
537.76	40.390
538.10	40.492
538.43	40.580
538.77	40.694
539.11	40.819
539.45	40.911
539.79	40.945
540.12	41.002
540.46	41.009
540.80	41.005
541.14	41.014
541.47	40.997
541.81	40.998
542.15	40.991
542.49	40.937
542.82	40.883
543.16	40.865
543.50	40.861
543.84	40.824
544.17	40.855
544.51	40.908
544.85	40.952
545.18	40.993
545.52	41.006
545.86	41.030
546.20	41.083
546.53	41.131
546.87	41.180
547.21	41.223
547.54	41.270
547.88	41.356
548.22	41.404
548.55	41.495
548.89	41.575
549.23	41.654
549.56	41.669
549.90	41.748
550.24	41.795
550.57	41.797
550.91	41.841
551.25	41.869
551.58	41.899
551.92	41.947
552.26	41.961
552.59	41.978
552.93	42.050
553.27	42.140
553.60	42.178
553.94	42.303
554.27	42.405
554.61	42.487
554.95	42.580
555.28	42.626
555.62	42.694
555.95	42.769
556.29	42.847
556.63	42.867
556.96	42.894
557.30	42.947
557.63	42.973
557.97	42.995
558.31	43.043
558.64	43.088
558.98	43.099
559.31	43.150
559.65	43.170
559.98	43.212
560.32	43.291
560.65	43.314
560.99	43.370
561.33	43.437
561.66	43.469
562.00	43.481
562.33	43.499
562.67	43.556
563.00	43.585
563.34	43.642
563.67	43.640
564.01	43.625
564.34	43.691
564.68	43.717
565.01	43.700
565.35	43.754
565.68	43.821
566.02	43.884
566.35	43.961
566.69	44.005
567.02	44.027
567.36	44.127
567.69	44.154
568.03	44.194
568.36	44.216
568.69	44.237
569.03	44.288
569.36	44.326
569.70	44.334
570.03	44.317
570.37	44.355
570.70	44.420
571.04	44.441
571.37	44.486
571.70	44.539
572.04	44.611
572.37	44.699
572.71	44.725
573.04	44.753
573.37	44.819
573.71	44.914
574.04	44.949
574.38	45.017
574.71	45.089
575.04	45.231
575.38	45.295
575.71	45.329
576.05	45.434
576.38	45.536
576.71	45.634
577.05	45.748
577.38	45.824
577.71	45.937
578.05	45.955
578.38	45.996
578.71	46.042
579.05	46.134
579.38	46.231
579.71	46.225
580.05	46.244
580.38	46.304
580.71	46.316
581.05	46.397
581.38	46.445
581.71	46.527
582.05	46.633
582.38	46.699
582.71	46.780
583.04	46.828
583.38	46.920
583.71	46.982
584.04	47.074
584.38	47.164
584.71	47.221
585.04	47.282
585.37	47.359
585.71	47.391
586.04	47.379
586.37	47.373
586.70	47.435
587.04	47.436
587.37	47.513
587.70	47.543
588.03	47.563
588.37	47.577
588.70	47.606
589.03	47.626
589.36	47.685
589.69	47.754
590.03	47.790
590.36	47.792
590.69	47.913
591.02	47.977
591.35	47.980
591.69	48.022
592.02	48.065
592.35	48.078
592.68	48.118
593.01	48.115
593.35	48.147
593.68	48.174
594.01	48.210
594.34	48.213
594.67	48.200
595.00	48.245
595.34	48.250
595.67	48.288
596.00	48.344
596.33	48.360
596.66	48.385
596.99	48.413
597.32	48.505
597.65	48.612
597.99	48.653
598.32	48.726
598.65	48.795
598.98	48.916
599.31	49.017
599.64	49.089
599.97	49.158
600.30	49.176
600.63	49.236
600.96	49.236
601.30	49.239
601.63	49.254
601.96	49.266
602.29	49.285
602.62	49.262
602.95	49.282
603.28	49.296
603.61	49.379
603.94	49.477
604.27	49.520
604.60	49.593
604.93	49.665
605.26	49.755
605.59	49.845
605.92	49.913
606.25	50.059
606.58	50.138
606.91	50.225
607.24	50.255
607.57	50.274
607.90	50.338
608.23	50.340
608.56	50.404
608.89	50.449
609.22	50.487
609.55	50.560
609.88	50.598
610.21	50.635
610.54	50.705
610.87	50.805
611.20	50.973
611.53	51.102
611.86	51.302
612.19	51.416
612.52	51.552
612.85	51.656
613.18	51.739
613.51	51.759
613.84	51.791
614.17	51.881
614.49	51.889
614.82	51.937
615.15	52.027
615.48	52.102
615.81	52.155
616.14	52.152
616.47	52.209
616.80	52.233
617.13	52.337
617.46	52.431
617.78	52.461
618.11	52.580
618.44	52.621
618.77	52.634
619.10	52.643
619.43	52.682
619.76	52.789
620.09	52.892
620.41	52.990
620.74	53.032
621.07	53.096
621.40	53.189
621.73	53.188
622.06	53.250
622.38	53.303
622.71	53.304
623.04	53.345
623.37	53.380
623.70	53.413
624.02	53.437
624.35	53.500
624.68	53.496
625.01	53.521
625.34	53.594
625.66	53.608
625.99	53.648
626.32	53.717
626.65	53.756
626.98	53.779
627.30	53.872
627.63	53.911
627.96	53.989
628.29	54.105
628.61	54.208
628.94	54.208
629.27	54.256
629.60	54.328
629.92	54.371
630.25	54.421
630.58	54.479
630.91	54.455
631.23	54.558
631.56	54.578
631.89	54.643
632.21	54.673
632.54	54.747
632.87	54.856
633.19	54.892
633.52	55.008
633.85	55.090
634.18	55.139
634.50	55.168
634.83	55.217
635.16	55.291
635.48	55.372
635.81	55.398
636.14	55.497
636.46	55.577
636.79	55.613
637.11	55.615
637.44	55.677
637.77	55.772
638.09	55.813
638.42	55.865
638.75	55.928
639.07	55.928
639.40	56.008
639.73	56.104
640.05	56.146
