OOIBase32 Version 2.0.0.6 Data File
++++++++++++++++++++++++++++++++++++
Date: 01-23-2012, 21:42:00
User: Valued Ocean Optics Customer
Spectrometer Serial Number: USB2E2917
Spectrometer Channel: Master
Integration Time (msec): 5
Spectra Averaged: 10
Boxcar Smoothing: 5
Correct for Electrical Dark: Enabled
Time Normalized: Disabled
Dual-beam Reference: Disabled
Reference Channel: Master
Temperature: Not acquired
Spectrometer Type: S2000
ADC Type: USB2000
Number of Pixels in File: 2048
Graph Title: 
>>>>>Begin Spectral Data<<<<<
180.30	0.000
180.67	0.000
181.03	256.534
181.40	19.309
181.77	3788.867
182.14	211.479
182.51	134.711
182.88	-6252.860
183.25	-115.607
183.62	49.032
183.99	91.578
184.36	41.327
184.73	113.226
185.10	180.747
185.46	94.064
185.83	-0.084
186.20	-3.087
186.57	419.431
186.94	-3.781
187.31	177.377
187.68	-252.500
188.05	30.862
188.42	30.009
188.78	36.853
189.15	32.294
189.52	33.385
189.89	23.829
190.26	-12.030
190.63	5.774
191.00	11.549
191.37	13.515
191.73	9.612
192.10	15.533
192.47	3.829
192.84	-7.075
193.21	-11.514
193.58	4.198
193.94	1.000
194.31	-2.518
194.68	-0.448
195.05	-13.118
195.42	-14.518
195.79	-18.279
196.15	-24.395
196.52	-10.788
196.89	-12.308
197.26	-10.686
197.63	-33.087
198.00	-37.075
198.36	-27.304
198.73	-24.632
199.10	-16.547
199.47	-25.721
199.84	-23.840
200.20	-11.361
200.57	-40.622
200.94	-20.403
201.31	-15.234
201.68	14.039
202.04	9.838
202.41	33.010
202.78	32.681
203.15	30.073
203.51	29.617
203.88	13.408
204.25	8.519
204.62	22.650
204.98	30.105
205.35	25.366
205.72	22.013
206.09	34.140
206.46	17.097
206.82	2.891
207.19	-8.693
207.56	0.460
207.92	13.178
208.29	7.673
208.66	-0.694
209.03	-6.960
209.39	-12.734
209.76	-23.158
210.13	-25.896
210.50	-25.077
210.86	-11.396
211.23	12.799
211.60	13.025
211.96	17.976
212.33	13.327
212.70	16.313
213.07	6.728
213.43	9.142
213.80	10.163
214.17	-0.596
214.53	-7.672
214.90	-3.498
215.27	-16.494
215.63	-20.271
216.00	-22.821
216.37	-13.266
216.74	-26.182
217.10	-24.648
217.47	-42.921
217.84	-37.877
218.20	-7.083
218.57	3.469
218.94	-5.026
219.30	1.961
219.67	9.119
220.04	1.941
220.40	-4.185
220.77	-0.145
221.13	-0.980
221.50	5.725
221.87	1.929
222.23	-9.282
222.60	-9.293
222.97	-12.663
223.33	-13.230
223.70	-13.918
224.07	-8.883
224.43	-2.989
224.80	-1.371
225.16	-1.114
225.53	1.507
225.90	-1.065
226.26	-3.980
226.63	-5.790
226.99	-3.325
227.36	-3.315
227.73	-3.049
228.09	-5.060
228.46	-7.231
228.82	-6.148
229.19	-6.031
229.56	-7.692
229.92	-7.138
230.29	-4.387
230.65	-2.918
231.02	-2.438
231.38	-3.410
231.75	-4.450
232.12	-3.197
232.48	-0.877
232.85	-1.296
233.21	2.562
233.58	2.910
233.94	4.435
234.31	1.760
234.68	1.319
235.04	0.723
235.41	0.761
235.77	1.696
236.14	1.769
236.50	-0.772
236.87	-0.741
237.23	-3.237
237.60	-2.125
237.96	-1.808
238.33	0.428
238.69	0.458
239.06	0.313
239.42	0.434
239.79	0.992
240.15	1.617
240.52	2.220
240.88	2.021
241.25	2.796
241.61	2.786
241.98	3.181
242.34	2.931
242.71	3.791
243.07	4.178
243.44	4.070
243.80	3.719
244.17	3.835
244.53	4.052
244.90	3.711
245.26	3.552
245.63	3.388
245.99	3.164
246.36	3.230
246.72	2.351
247.09	2.025
247.45	1.935
247.81	1.567
248.18	1.040
248.54	0.874
248.91	1.255
249.27	1.722
249.64	2.085
250.00	2.583
250.36	2.421
250.73	3.280
251.09	3.690
251.46	3.841
251.82	4.594
252.19	5.019
252.55	4.971
252.91	5.087
253.28	3.989
253.64	3.882
254.01	3.378
254.37	2.670
254.73	2.591
255.10	2.375
255.46	2.636
255.83	2.262
256.19	2.340
256.55	2.402
256.92	2.188
257.28	2.410
257.65	2.405
258.01	2.558
258.37	2.662
258.74	2.668
259.10	2.625
259.46	2.568
259.83	2.682
260.19	2.542
260.55	2.330
260.92	2.756
261.28	2.691
261.64	2.470
262.01	2.212
262.37	2.011
262.73	1.876
263.10	1.895
263.46	1.886
263.82	1.776
264.19	1.699
264.55	1.985
264.91	1.646
265.28	2.189
265.64	2.294
266.00	2.205
266.37	2.244
266.73	2.519
267.09	2.419
267.46	2.515
267.82	2.595
268.18	2.644
268.54	2.496
268.91	2.692
269.27	2.358
269.63	2.515
270.00	2.650
270.36	2.863
270.72	2.571
271.08	2.410
271.45	2.382
271.81	2.480
272.17	2.619
272.53	2.422
272.90	1.980
273.26	1.836
273.62	1.757
273.98	1.675
274.35	1.613
274.71	1.977
275.07	2.184
275.43	2.331
275.80	2.341
276.16	2.665
276.52	2.792
276.88	3.104
277.25	2.932
277.61	3.006
277.97	2.962
278.33	2.856
278.69	2.436
279.06	2.692
279.42	2.362
279.78	2.215
280.14	1.856
280.50	2.020
280.87	2.104
281.23	2.494
281.59	2.423
281.95	2.538
282.31	2.626
282.68	2.733
283.04	2.632
283.40	2.722
283.76	2.675
284.12	2.741
284.48	2.696
284.85	2.553
285.21	2.201
285.57	2.204
285.93	2.193
286.29	2.214
286.65	2.159
287.02	2.067
287.38	2.130
287.74	2.356
288.10	2.135
288.46	2.094
288.82	2.029
289.18	2.169
289.54	2.023
289.91	2.143
290.27	2.229
290.63	2.520
290.99	2.508
291.35	2.400
291.71	2.449
292.07	2.572
292.43	2.809
292.79	3.187
293.16	3.315
293.52	3.318
293.88	3.088
294.24	3.036
294.60	2.789
294.96	2.956
295.32	3.063
295.68	2.814
296.04	3.040
296.40	2.938
296.76	2.756
297.12	2.799
297.49	3.031
297.85	3.229
298.21	3.243
298.57	3.455
298.93	3.438
299.29	3.396
299.65	3.480
300.01	3.245
300.37	3.021
300.73	3.188
301.09	3.159
301.45	3.109
301.81	3.027
302.17	3.071
302.53	2.973
302.89	2.814
303.25	2.729
303.61	2.906
303.97	2.982
304.33	3.100
304.69	2.931
305.05	2.913
305.41	2.742
305.77	2.743
306.13	2.643
306.49	2.752
306.85	2.791
307.21	2.899
307.57	2.899
307.93	2.897
308.29	3.018
308.65	3.154
309.01	3.221
309.37	3.460
309.73	3.514
310.09	3.614
310.45	3.577
310.81	3.658
311.17	3.560
311.53	3.606
311.89	3.688
312.25	3.661
312.61	3.483
312.96	3.531
313.32	3.440
313.68	3.227
314.04	3.240
314.40	3.204
314.76	3.283
315.12	3.543
315.48	3.560
315.84	3.488
316.20	3.577
316.56	3.810
316.92	3.744
317.27	3.722
317.63	3.918
317.99	3.995
318.35	4.067
318.71	4.022
319.07	4.007
319.43	4.067
319.79	4.131
320.15	4.172
320.50	4.040
320.86	4.188
321.22	4.340
321.58	4.513
321.94	4.565
322.30	4.646
322.66	4.810
323.01	4.885
323.37	4.900
323.73	4.989
324.09	5.136
324.45	5.368
324.81	5.353
325.17	5.400
325.52	5.403
325.88	5.388
326.24	5.456
326.60	5.597
326.96	5.755
327.31	5.795
327.67	5.858
328.03	5.897
328.39	5.942
328.75	6.112
329.11	6.185
329.46	6.185
329.82	6.296
330.18	6.476
330.54	6.418
330.90	6.360
331.25	6.360
331.61	6.405
331.97	6.427
332.33	6.492
332.68	6.473
333.04	6.479
333.40	6.600
333.76	6.675
334.11	6.599
334.47	6.664
334.83	6.688
335.19	6.756
335.54	6.834
335.90	6.872
336.26	6.899
336.62	7.031
336.97	6.957
337.33	6.885
337.69	6.897
338.05	6.955
338.40	6.959
338.76	6.982
339.12	6.928
339.48	6.973
339.83	6.941
340.19	6.870
340.55	6.773
340.90	6.868
341.26	6.852
341.62	6.798
341.97	6.834
342.33	6.869
342.69	6.853
343.04	6.886
343.40	6.847
343.76	6.841
344.12	6.946
344.47	7.091
344.83	6.998
345.19	6.997
345.54	7.047
345.90	7.063
346.26	6.976
346.61	7.110
346.97	7.152
347.32	7.144
347.68	7.152
348.04	7.101
348.39	6.987
348.75	7.173
349.11	7.160
349.46	7.100
349.82	7.026
350.18	7.122
350.53	7.045
350.89	7.061
351.24	7.047
351.60	7.051
351.96	7.055
352.31	7.052
352.67	6.976
353.02	7.042
353.38	7.066
353.74	7.024
354.09	7.056
354.45	7.006
354.80	6.981
355.16	7.013
355.52	7.050
355.87	6.995
356.23	6.974
356.58	7.009
356.94	7.011
357.29	7.047
357.65	7.017
358.00	6.986
358.36	7.006
358.72	7.036
359.07	7.032
359.43	7.064
359.78	7.147
360.14	7.173
360.49	7.175
360.85	7.159
361.20	7.143
361.56	7.245
361.91	7.234
362.27	7.298
362.62	7.300
362.98	7.325
363.33	7.299
363.69	7.275
364.04	7.276
364.40	7.292
364.75	7.281
365.11	7.377
365.46	7.389
365.82	7.396
366.17	7.399
366.53	7.469
366.88	7.444
367.24	7.528
367.59	7.541
367.95	7.597
368.30	7.603
368.66	7.667
369.01	7.635
369.37	7.682
369.72	7.717
370.08	7.752
370.43	7.713
370.78	7.770
371.14	7.749
371.49	7.803
371.85	7.816
372.20	7.856
372.56	7.914
372.91	7.933
373.26	7.896
373.62	7.900
373.97	7.906
374.33	7.932
374.68	7.920
375.03	7.957
375.39	7.971
375.74	7.983
376.10	8.034
376.45	8.068
376.80	8.107
377.16	8.188
377.51	8.220
377.87	8.217
378.22	8.302
378.57	8.437
378.93	8.472
379.28	8.577
379.63	8.657
379.99	8.720
380.34	8.736
380.70	8.761
381.05	8.796
381.40	8.884
381.76	8.963
382.11	8.969
382.46	8.922
382.82	8.932
383.17	8.958
383.52	9.019
383.88	8.976
384.23	9.038
384.58	9.104
384.94	9.148
385.29	9.184
385.64	9.251
385.99	9.337
386.35	9.483
386.70	9.533
387.05	9.538
387.41	9.539
387.76	9.595
388.11	9.618
388.47	9.703
388.82	9.728
389.17	9.746
389.52	9.783
389.88	9.810
390.23	9.796
390.58	9.865
390.93	9.891
391.29	9.956
391.64	10.011
391.99	10.095
392.34	10.121
392.70	10.175
393.05	10.225
393.40	10.276
393.75	10.328
394.11	10.349
394.46	10.367
394.81	10.400
395.16	10.427
395.52	10.513
395.87	10.479
396.22	10.466
396.57	10.500
396.92	10.542
397.28	10.570
397.63	10.591
397.98	10.672
398.33	10.761
398.68	10.874
399.04	10.936
399.39	10.952
399.74	11.050
400.09	11.114
400.44	11.142
400.80	11.175
401.15	11.191
401.50	11.228
401.85	11.275
402.20	11.292
402.55	11.309
402.90	11.342
403.26	11.410
403.61	11.460
403.96	11.552
404.31	11.651
404.66	11.735
405.01	11.818
405.36	11.906
405.72	11.962
406.07	12.037
406.42	12.079
406.77	12.123
407.12	12.141
407.47	12.194
407.82	12.237
408.17	12.266
408.53	12.329
408.88	12.391
409.23	12.439
409.58	12.493
409.93	12.530
410.28	12.614
410.63	12.708
410.98	12.821
411.33	12.861
411.68	12.875
412.03	12.938
412.38	12.985
412.73	12.998
413.09	13.027
413.44	13.057
413.79	13.098
414.14	13.120
414.49	13.103
414.84	13.075
415.19	13.133
415.54	13.164
415.89	13.176
416.24	13.210
416.59	13.250
416.94	13.284
417.29	13.331
417.64	13.365
417.99	13.378
418.34	13.442
418.69	13.502
419.04	13.543
419.39	13.602
419.74	13.654
420.09	13.703
420.44	13.749
420.79	13.798
421.14	13.822
421.49	13.866
421.84	13.934
422.19	13.968
422.54	14.038
422.89	14.066
423.24	14.104
423.59	14.162
423.94	14.188
424.29	14.238
424.64	14.294
424.99	14.378
425.34	14.478
425.68	14.571
426.03	14.683
426.38	14.747
426.73	14.872
427.08	14.986
427.43	15.077
427.78	15.179
428.13	15.297
428.48	15.389
428.83	15.476
429.18	15.527
429.53	15.572
429.87	15.613
430.22	15.643
430.57	15.690
430.92	15.739
431.27	15.795
431.62	15.836
431.97	15.842
432.32	15.880
432.67	15.892
433.01	15.920
433.36	15.997
433.71	16.061
434.06	16.150
434.41	16.211
434.76	16.279
435.11	16.320
435.45	16.400
435.80	16.460
436.15	16.528
436.50	16.605
436.85	16.629
437.20	16.642
437.54	16.690
437.89	16.692
438.24	16.726
438.59	16.747
438.94	16.797
439.29	16.809
439.63	16.840
439.98	16.862
440.33	16.874
440.68	16.933
441.03	16.965
441.37	16.965
441.72	16.978
442.07	16.995
442.42	17.002
442.76	17.000
443.11	17.012
443.46	17.033
443.81	17.033
444.16	17.054
444.50	17.024
444.85	17.036
445.20	17.059
445.55	17.080
445.89	17.095
446.24	17.101
446.59	17.133
446.94	17.164
447.28	17.195
447.63	17.230
447.98	17.265
448.32	17.348
448.67	17.379
449.02	17.425
449.37	17.491
449.71	17.529
450.06	17.595
450.41	17.620
450.75	17.645
451.10	17.670
451.45	17.716
451.79	17.737
452.14	17.763
452.49	17.805
452.84	17.862
453.18	17.906
453.53	17.946
453.88	17.983
454.22	18.031
454.57	18.082
454.92	18.162
455.26	18.197
455.61	18.236
455.95	18.254
456.30	18.296
456.65	18.290
456.99	18.324
457.34	18.357
457.69	18.391
458.03	18.380
458.38	18.403
458.73	18.424
459.07	18.466
459.42	18.503
459.76	18.565
460.11	18.614
460.46	18.696
460.80	18.753
461.15	18.799
461.49	18.833
461.84	18.939
462.19	19.036
462.53	19.102
462.88	19.158
463.22	19.235
463.57	19.325
463.91	19.380
464.26	19.427
464.61	19.461
464.95	19.515
465.30	19.580
465.64	19.638
465.99	19.640
466.33	19.658
466.68	19.709
467.02	19.748
467.37	19.765
467.71	19.771
468.06	19.799
468.41	19.820
468.75	19.846
469.10	19.884
469.44	19.891
469.79	19.923
470.13	19.989
470.48	19.990
470.82	20.016
471.17	20.026
471.51	20.071
471.86	20.077
472.20	20.120
472.55	20.161
472.89	20.173
473.23	20.204
473.58	20.243
473.92	20.225
474.27	20.223
474.61	20.207
474.96	20.198
475.30	20.174
475.65	20.181
475.99	20.189
476.34	20.175
476.68	20.209
477.02	20.230
477.37	20.240
477.71	20.280
478.06	20.359
478.40	20.461
478.75	20.619
479.09	20.796
479.43	20.964
479.78	21.177
480.12	21.445
480.47	21.717
480.81	22.017
481.15	22.328
481.50	22.649
481.84	23.036
482.19	23.450
482.53	23.775
482.87	23.931
483.22	23.894
483.56	23.674
483.90	23.326
484.25	22.891
484.59	22.476
484.94	22.179
485.28	21.875
485.62	21.473
485.97	21.029
486.31	20.657
486.65	20.455
487.00	20.445
487.34	20.583
487.68	20.797
488.03	21.098
488.37	21.341
488.71	21.420
489.06	21.463
489.40	21.490
489.74	21.511
490.09	21.538
490.43	21.524
490.77	21.523
491.11	21.534
491.46	21.588
491.80	21.605
492.14	21.613
492.49	21.625
492.83	21.634
493.17	21.657
493.51	21.678
493.86	21.710
494.20	21.770
494.54	21.842
494.88	21.901
495.23	21.942
495.57	21.998
495.91	22.067
496.25	22.117
496.60	22.132
496.94	22.196
497.28	22.233
497.62	22.280
497.97	22.345
498.31	22.398
498.65	22.445
498.99	22.506
499.33	22.573
499.68	22.640
500.02	22.713
500.36	22.820
500.70	22.874
501.04	22.963
501.39	23.006
501.73	23.080
502.07	23.135
502.41	23.226
502.75	23.282
503.09	23.326
503.44	23.386
503.78	23.457
504.12	23.505
504.46	23.567
504.80	23.629
505.14	23.702
505.49	23.745
505.83	23.819
506.17	23.864
506.51	23.908
506.85	23.949
507.19	23.999
507.53	24.040
507.87	24.088
508.22	24.157
508.56	24.205
508.90	24.253
509.24	24.314
509.58	24.348
509.92	24.399
510.26	24.439
510.60	24.503
510.94	24.553
511.28	24.622
511.63	24.682
511.97	24.716
512.31	24.778
512.65	24.839
512.99	24.906
513.33	24.989
513.67	25.068
514.01	25.127
514.35	25.182
514.69	25.252
515.03	25.299
515.37	25.350
515.71	25.400
516.05	25.433
516.39	25.478
516.73	25.508
517.07	25.522
517.41	25.557
517.75	25.582
518.09	25.614
518.43	25.624
518.77	25.633
519.11	25.662
519.45	25.694
519.79	25.723
520.13	25.766
520.47	25.794
520.81	25.852
521.15	25.862
521.49	25.890
521.83	25.910
522.17	25.958
522.51	26.003
522.85	26.054
523.19	26.151
523.53	26.296
523.87	26.451
524.21	26.600
524.55	26.720
524.89	26.855
525.23	26.995
525.57	27.125
525.91	27.231
526.25	27.323
526.58	27.409
526.92	27.462
527.26	27.474
527.60	27.444
527.94	27.398
528.28	27.358
528.62	27.302
528.96	27.223
529.30	27.155
529.64	27.076
529.97	27.001
530.31	26.911
530.65	26.835
530.99	26.782
531.33	26.758
531.67	26.768
532.01	26.772
532.35	26.755
532.68	26.753
533.02	26.745
533.36	26.734
533.70	26.723
534.04	26.709
534.38	26.693
534.71	26.681
535.05	26.674
535.39	26.646
535.73	26.648
536.07	26.703
536.41	26.757
536.74	26.767
537.08	26.815
537.42	26.894
537.76	26.964
538.10	27.027
538.43	27.091
538.77	27.140
539.11	27.187
539.45	27.207
539.79	27.225
540.12	27.225
540.46	27.237
540.80	27.216
541.14	27.160
541.47	27.118
541.81	27.081
542.15	27.035
542.49	26.983
542.82	26.931
543.16	26.893
543.50	26.827
543.84	26.794
544.17	26.764
544.51	26.766
544.85	26.771
545.18	26.772
545.52	26.771
545.86	26.767
546.20	26.749
546.53	26.773
546.87	26.792
547.21	26.812
547.54	26.812
547.88	26.856
548.22	26.852
548.55	26.877
548.89	26.918
549.23	26.926
549.56	26.940
549.90	26.993
550.24	26.998
550.57	27.008
550.91	26.982
551.25	27.024
551.58	26.981
551.92	27.000
552.26	26.983
552.59	26.967
552.93	26.976
553.27	26.984
553.60	26.961
553.94	26.983
554.27	26.953
554.61	26.989
554.95	26.992
555.28	27.030
555.62	27.054
555.95	27.083
556.29	27.104
556.63	27.119
556.96	27.083
557.30	27.105
557.63	27.092
557.97	27.106
558.31	27.125
558.64	27.128
558.98	27.138
559.31	27.140
559.65	27.161
559.98	27.167
560.32	27.161
560.65	27.196
560.99	27.194
561.33	27.214
561.66	27.219
562.00	27.218
562.33	27.221
562.67	27.194
563.00	27.166
563.34	27.148
563.67	27.126
564.01	27.111
564.34	27.076
564.68	27.094
565.01	27.065
565.35	27.043
565.68	27.033
566.02	27.029
566.35	27.049
566.69	27.064
567.02	27.055
567.36	27.041
567.69	27.051
568.03	27.081
568.36	27.051
568.69	27.041
569.03	27.073
569.36	27.066
569.70	27.060
570.03	27.047
570.37	27.025
570.70	27.037
571.04	27.050
571.37	27.046
571.70	27.037
572.04	27.040
572.37	27.054
572.71	27.068
573.04	27.085
573.37	27.104
573.71	27.108
574.04	27.133
574.38	27.124
574.71	27.136
575.04	27.164
575.38	27.184
575.71	27.172
576.05	27.186
576.38	27.182
576.71	27.183
577.05	27.201
577.38	27.258
577.71	27.272
578.05	27.282
578.38	27.278
578.71	27.278
579.05	27.272
579.38	27.298
579.71	27.293
580.05	27.273
580.38	27.289
580.71	27.228
581.05	27.168
581.38	27.147
581.71	27.174
582.05	27.181
582.38	27.191
582.71	27.224
583.04	27.206
583.38	27.227
583.71	27.224
584.04	27.196
584.38	27.236
584.71	27.221
585.04	27.213
585.37	27.216
585.71	27.207
586.04	27.176
586.37	27.149
586.70	27.177
587.04	27.130
587.37	27.132
587.70	27.102
588.03	27.086
588.37	27.079
588.70	27.054
589.03	27.010
589.36	27.000
589.69	26.948
590.03	26.903
590.36	26.840
590.69	26.849
591.02	26.797
591.35	26.780
591.69	26.739
592.02	26.713
592.35	26.685
592.68	26.676
593.01	26.621
593.35	26.647
593.68	26.615
594.01	26.606
594.34	26.544
594.67	26.546
595.00	26.521
595.34	26.489
595.67	26.480
596.00	26.489
596.33	26.427
596.66	26.425
596.99	26.391
597.32	26.429
597.65	26.415
597.99	26.432
598.32	26.422
598.65	26.446
598.98	26.446
599.31	26.433
599.64	26.405
599.97	26.406
600.30	26.340
600.63	26.326
600.96	26.256
601.30	26.210
601.63	26.177
601.96	26.129
602.29	26.068
602.62	26.026
602.95	26.005
603.28	25.971
603.61	25.948
603.94	25.959
604.27	25.899
604.60	25.898
604.93	25.918
605.26	25.909
605.59	25.909
605.92	25.938
606.25	25.950
606.58	25.932
606.91	25.899
607.24	25.891
607.57	25.890
607.90	25.902
608.23	25.857
608.56	25.813
608.89	25.796
609.22	25.779
609.55	25.749
609.88	25.723
610.21	25.707
610.54	25.737
610.87	25.732
611.20	25.717
611.53	25.750
611.86	25.765
612.19	25.789
612.52	25.772
612.85	25.769
613.18	25.755
613.51	25.709
613.84	25.708
614.17	25.687
614.49	25.663
614.82	25.621
615.15	25.578
615.48	25.533
615.81	25.493
616.14	25.468
616.47	25.460
616.80	25.417
617.13	25.421
617.46	25.393
617.78	25.333
618.11	25.290
618.44	25.306
618.77	25.254
619.10	25.225
619.43	25.208
619.76	25.169
620.09	25.120
620.41	25.101
620.74	25.104
621.07	25.048
621.40	25.034
621.73	25.044
622.06	24.993
622.38	24.986
622.71	24.936
623.04	24.827
623.37	24.830
623.70	24.830
624.02	24.800
624.35	24.763
624.68	24.736
625.01	24.740
625.34	24.688
625.66	24.678
625.99	24.655
626.32	24.668
626.65	24.717
626.98	24.683
627.30	24.663
627.63	24.626
627.96	24.590
628.29	24.611
628.61	24.540
628.94	24.514
629.27	24.460
629.60	24.426
629.92	24.354
630.25	24.313
630.58	24.246
630.91	24.174
631.23	24.160
631.56	24.090
631.89	24.044
632.21	24.048
632.54	23.980
632.87	23.969
633.19	23.944
633.52	23.945
633.85	23.913
634.18	23.897
634.50	23.861
634.83	23.851
635.16	23.855
635.48	23.783
635.81	23.743
636.14	23.771
636.46	23.728
636.79	23.715
637.11	23.706
637.44	23.731
637.77	23.737
638.09	23.736
638.42	23.639
638.75	23.610
639.07	23.611
639.40	23.600
639.73	23.578
640.05	23.587
640.38	23.507
640.70	23.490
641.03	23.457
641.36	23.420
641.68	23.355
642.01	23.369
