OOIBase32 Version 2.0.0.6 Data File
++++++++++++++++++++++++++++++++++++
Date: 01-23-2012, 21:43:08
User: Valued Ocean Optics Customer
Spectrometer Serial Number: USB2E2917
Spectrometer Channel: Master
Integration Time (msec): 5
Spectra Averaged: 10
Boxcar Smoothing: 5
Correct for Electrical Dark: Enabled
Time Normalized: Disabled
Dual-beam Reference: Disabled
Reference Channel: Master
Temperature: Not acquired
Spectrometer Type: S2000
ADC Type: USB2000
Number of Pixels in File: 2048
Graph Title: 
>>>>>Begin Spectral Data<<<<<
180.30	0.000
180.67	0.000
181.03	-1.239
181.40	-22.286
181.77	3569.867
182.14	323.139
182.51	137.013
182.88	-1490.148
183.25	-72.267
183.62	84.155
183.99	14.613
184.36	-17.578
184.73	253.408
185.10	-43.515
185.46	31.152
185.83	71.875
186.20	72.707
186.57	-286.657
186.94	10.295
187.31	235.149
187.68	-226.900
188.05	63.486
188.42	71.528
188.78	76.172
189.15	73.263
189.52	86.559
189.89	67.467
190.26	66.609
190.63	75.766
191.00	55.585
191.37	49.347
191.73	48.659
192.10	55.207
192.47	46.367
192.84	33.725
193.21	21.567
193.58	22.775
193.94	25.001
194.31	15.882
194.68	10.022
195.05	11.056
195.42	-5.914
195.79	-3.035
196.15	-10.907
196.52	-5.985
196.89	-12.831
197.26	-10.942
197.63	-26.334
198.00	-29.014
198.36	-15.380
198.73	-13.486
199.10	-7.291
199.47	-4.632
199.84	-16.910
200.20	2.537
200.57	-20.133
200.94	-18.470
201.31	-18.139
201.68	11.832
202.04	5.389
202.41	4.574
202.78	-5.387
203.15	-13.916
203.51	-22.403
203.88	-2.963
204.25	-21.833
204.62	-2.977
204.98	0.160
205.35	1.550
205.72	-11.939
206.09	2.316
206.46	7.943
206.82	10.338
207.19	10.514
207.56	13.596
207.92	-7.123
208.29	-9.087
208.66	-15.884
209.03	-13.334
209.39	-13.305
209.76	-10.921
210.13	-25.752
210.50	-41.215
210.86	-27.690
211.23	-9.248
211.60	-15.119
211.96	0.657
212.33	-13.171
212.70	-4.206
213.07	-8.639
213.43	-1.713
213.80	-3.114
214.17	-7.776
214.53	2.241
214.90	3.509
215.27	-8.605
215.63	-9.912
216.00	-12.061
216.37	6.028
216.74	-11.636
217.10	-9.632
217.47	-18.684
217.84	-19.855
218.20	2.155
218.57	-0.359
218.94	-16.041
219.30	-16.707
219.67	-11.101
220.04	-21.749
220.40	-19.349
220.77	-6.588
221.13	-12.945
221.50	-22.322
221.87	-19.887
222.23	-28.259
222.60	-25.006
222.97	-23.529
223.33	-18.796
223.70	-19.044
224.07	-8.836
224.43	-7.891
224.80	-5.648
225.16	-4.696
225.53	-1.467
225.90	-3.304
226.26	-3.606
226.63	-2.675
226.99	-0.833
227.36	-1.304
227.73	-2.538
228.09	-5.403
228.46	-5.905
228.82	-5.989
229.19	-5.207
229.56	-6.389
229.92	-5.383
230.29	-4.430
230.65	-4.985
231.02	-3.948
231.38	-5.097
231.75	-4.494
232.12	-2.749
232.48	-2.829
232.85	-1.817
233.21	0.465
233.58	2.411
233.94	3.176
234.31	1.367
234.68	1.276
235.04	0.230
235.41	1.016
235.77	1.527
236.14	1.104
236.50	-0.410
236.87	-0.934
237.23	-3.075
237.60	-3.513
237.96	-4.232
238.33	-3.367
238.69	-3.173
239.06	-2.549
239.42	-2.233
239.79	-0.870
240.15	-0.329
240.52	0.683
240.88	0.513
241.25	1.731
241.61	1.763
241.98	2.230
242.34	1.743
242.71	2.160
243.07	1.988
243.44	2.122
243.80	1.492
244.17	1.247
244.53	0.767
244.90	0.556
245.26	0.186
245.63	0.053
245.99	-0.187
246.36	0.163
246.72	-0.460
247.09	-0.552
247.45	-1.082
247.81	-1.214
248.18	-1.554
248.54	-1.596
248.91	-1.476
249.27	-1.700
249.64	-1.784
250.00	-1.688
250.36	-1.949
250.73	-1.372
251.09	-1.044
251.46	-0.408
251.82	0.060
252.19	0.765
252.55	0.780
252.91	0.515
253.28	0.294
253.64	0.520
254.01	0.699
254.37	0.353
254.73	0.450
255.10	0.347
255.46	0.046
255.83	-0.347
256.19	-0.602
256.55	-0.516
256.92	-0.431
257.28	-0.280
257.65	-0.009
258.01	-0.008
258.37	-0.008
258.74	-0.051
259.10	-0.030
259.46	0.104
259.83	0.302
260.19	0.172
260.55	0.293
260.92	0.151
261.28	0.060
261.64	-0.314
262.01	-0.593
262.37	-0.622
262.73	-0.933
263.10	-0.990
263.46	-0.728
263.82	-0.994
264.19	-1.032
264.55	-1.263
264.91	-0.853
265.28	-0.280
265.64	-0.258
266.00	-0.219
266.37	-0.137
266.73	0.112
267.09	-0.102
267.46	-0.218
267.82	-0.290
268.18	0.091
268.54	0.103
268.91	0.240
269.27	-0.228
269.63	-0.316
270.00	-0.338
270.36	-0.513
270.72	-0.675
271.08	-0.835
271.45	-0.985
271.81	-0.664
272.17	-0.731
272.53	-0.800
272.90	-1.174
273.26	-1.008
273.62	-0.962
273.98	-0.856
274.35	-0.747
274.71	-0.614
275.07	-0.337
275.43	0.076
275.80	-0.011
276.16	0.246
276.52	0.202
276.88	0.454
277.25	0.450
277.61	0.650
277.97	0.395
278.33	0.124
278.69	0.095
279.06	0.376
279.42	-0.161
279.78	-0.442
280.14	-0.761
280.50	-0.537
280.87	-0.374
281.23	-0.251
281.59	-0.310
281.95	-0.248
282.31	0.125
282.68	0.082
283.04	-0.181
283.40	-0.016
283.76	-0.035
284.12	0.067
284.48	0.057
284.85	-0.232
285.21	-0.514
285.57	-0.395
285.93	-0.224
286.29	-0.433
286.65	-0.583
287.02	-0.420
287.38	-0.396
287.74	-0.138
288.10	-0.235
288.46	-0.323
288.82	-0.336
289.18	-0.221
289.54	-0.303
289.91	-0.256
290.27	-0.018
290.63	0.227
290.99	0.105
291.35	0.127
291.71	0.228
292.07	0.236
292.43	0.312
292.79	0.708
293.16	0.831
293.52	0.780
293.88	0.638
294.24	0.515
294.60	0.499
294.96	0.624
295.32	0.648
295.68	0.449
296.04	0.622
296.40	0.595
296.76	0.450
297.12	0.477
297.49	0.520
297.85	0.609
298.21	0.746
298.57	0.865
298.93	0.770
299.29	0.899
299.65	0.915
300.01	0.817
300.37	0.753
300.73	0.845
301.09	0.935
301.45	0.955
301.81	0.896
302.17	0.865
302.53	0.776
302.89	0.789
303.25	0.515
303.61	0.694
303.97	0.708
304.33	0.737
304.69	0.660
305.05	0.557
305.41	0.375
305.77	0.456
306.13	0.294
306.49	0.384
306.85	0.424
307.21	0.609
307.57	0.606
307.93	0.630
308.29	0.593
308.65	0.605
309.01	0.575
309.37	0.835
309.73	0.857
310.09	1.016
310.45	0.956
310.81	1.053
311.17	0.981
311.53	0.943
311.89	1.028
312.25	1.103
312.61	1.119
312.96	1.301
313.32	1.251
313.68	1.178
314.04	1.077
314.40	1.071
314.76	0.962
315.12	1.140
315.48	1.216
315.84	1.067
316.20	1.167
316.56	1.170
316.92	1.026
317.27	0.882
317.63	0.910
317.99	1.044
318.35	1.006
318.71	1.048
319.07	1.003
319.43	1.056
319.79	1.098
320.15	0.984
320.50	0.897
320.86	0.924
321.22	1.093
321.58	1.106
321.94	0.972
322.30	1.024
322.66	1.038
323.01	1.020
323.37	0.845
323.73	0.877
324.09	0.949
324.45	1.084
324.81	0.915
325.17	0.678
325.52	0.721
325.88	0.701
326.24	0.711
326.60	0.791
326.96	0.763
327.31	0.766
327.67	0.700
328.03	0.661
328.39	0.531
328.75	0.671
329.11	0.837
329.46	0.756
329.82	0.768
330.18	0.755
330.54	0.609
330.90	0.627
331.25	0.633
331.61	0.645
331.97	0.619
332.33	0.718
332.68	0.633
333.04	0.611
333.40	0.636
333.76	0.737
334.11	0.700
334.47	0.709
334.83	0.663
335.19	0.768
335.54	0.826
335.90	0.884
336.26	0.862
336.62	0.940
336.97	0.905
337.33	0.864
337.69	0.812
338.05	0.870
338.40	0.864
338.76	0.846
339.12	0.765
339.48	0.734
339.83	0.696
340.19	0.584
340.55	0.484
340.90	0.479
341.26	0.473
341.62	0.478
341.97	0.503
342.33	0.610
342.69	0.609
343.04	0.616
343.40	0.600
343.76	0.587
344.12	0.679
344.47	0.805
344.83	0.758
345.19	0.755
345.54	0.743
345.90	0.762
346.26	0.671
346.61	0.708
346.97	0.662
347.32	0.636
347.68	0.633
348.04	0.623
348.39	0.582
348.75	0.747
349.11	0.729
349.46	0.731
349.82	0.622
350.18	0.630
350.53	0.504
350.89	0.581
351.24	0.634
351.60	0.661
351.96	0.632
352.31	0.622
352.67	0.488
353.02	0.520
353.38	0.514
353.74	0.534
354.09	0.492
354.45	0.642
354.80	0.578
355.16	0.530
355.52	0.523
355.87	0.484
356.23	0.487
356.58	0.512
356.94	0.472
357.29	0.453
357.65	0.354
358.00	0.373
358.36	0.290
358.72	0.335
359.07	0.347
359.43	0.360
359.78	0.428
360.14	0.360
360.49	0.375
360.85	0.386
361.20	0.402
361.56	0.489
361.91	0.497
362.27	0.518
362.62	0.469
362.98	0.454
363.33	0.407
363.69	0.333
364.04	0.350
364.40	0.308
364.75	0.280
365.11	0.335
365.46	0.310
365.82	0.263
366.17	0.205
366.53	0.240
366.88	0.195
367.24	0.256
367.59	0.317
367.95	0.414
368.30	0.406
368.66	0.430
369.01	0.377
369.37	0.425
369.72	0.424
370.08	0.471
370.43	0.437
370.78	0.452
371.14	0.406
371.49	0.437
371.85	0.380
372.20	0.383
372.56	0.397
372.91	0.347
373.26	0.276
373.62	0.245
373.97	0.261
374.33	0.293
374.68	0.310
375.03	0.348
375.39	0.228
375.74	0.177
376.10	0.192
376.45	0.190
376.80	0.217
377.16	0.263
377.51	0.306
377.87	0.250
378.22	0.196
378.57	0.195
378.93	0.129
379.28	0.226
379.63	0.289
379.99	0.302
380.34	0.267
380.70	0.259
381.05	0.321
381.40	0.325
381.76	0.348
382.11	0.409
382.46	0.385
382.82	0.427
383.17	0.421
383.52	0.410
383.88	0.350
384.23	0.361
384.58	0.334
384.94	0.250
385.29	0.250
385.64	0.257
385.99	0.246
386.35	0.308
386.70	0.314
387.05	0.259
387.41	0.238
387.76	0.236
388.11	0.204
388.47	0.259
388.82	0.245
389.17	0.210
389.52	0.212
389.88	0.184
390.23	0.154
390.58	0.128
390.93	0.142
391.29	0.148
391.64	0.184
391.99	0.200
392.34	0.175
392.70	0.197
393.05	0.197
393.40	0.185
393.75	0.179
394.11	0.166
394.46	0.165
394.81	0.144
395.16	0.098
395.52	0.103
395.87	0.081
396.22	0.057
396.57	0.029
396.92	0.041
397.28	0.041
397.63	0.008
397.98	0.006
398.33	-0.022
398.68	-0.014
399.04	0.006
399.39	-0.015
399.74	0.003
400.09	0.006
400.44	0.020
400.80	-0.011
401.15	-0.032
401.50	0.002
401.85	0.020
402.20	0.040
402.55	0.051
402.90	0.060
403.26	0.056
403.61	0.057
403.96	0.049
404.31	0.034
404.66	0.048
405.01	0.062
405.36	0.053
405.72	0.022
406.07	0.017
406.42	-0.006
406.77	-0.016
407.12	-0.021
407.47	-0.014
407.82	-0.015
408.17	-0.035
408.53	-0.011
408.88	-0.002
409.23	-0.003
409.58	-0.012
409.93	-0.033
410.28	-0.040
410.63	-0.061
410.98	-0.063
411.33	-0.104
411.68	-0.102
412.03	-0.059
412.38	-0.058
412.73	-0.082
413.09	-0.072
413.44	-0.052
413.79	-0.018
414.14	-0.002
414.49	0.005
414.84	0.019
415.19	0.070
415.54	0.082
415.89	0.091
416.24	0.088
416.59	0.117
416.94	0.129
417.29	0.144
417.64	0.158
417.99	0.188
418.34	0.222
418.69	0.236
419.04	0.229
419.39	0.253
419.74	0.258
420.09	0.266
420.44	0.266
420.79	0.277
421.14	0.271
421.49	0.268
421.84	0.258
422.19	0.245
422.54	0.254
422.89	0.255
423.24	0.235
423.59	0.223
423.94	0.213
424.29	0.202
424.64	0.171
424.99	0.166
425.34	0.147
425.68	0.134
426.03	0.127
426.38	0.098
426.73	0.091
427.08	0.077
427.43	0.079
427.78	0.091
428.13	0.090
428.48	0.102
428.83	0.100
429.18	0.106
429.53	0.096
429.87	0.104
430.22	0.087
430.57	0.096
430.92	0.093
431.27	0.088
431.62	0.085
431.97	0.072
432.32	0.071
432.67	0.068
433.01	0.063
433.36	0.079
433.71	0.061
434.06	0.074
434.41	0.071
434.76	0.096
435.11	0.091
435.45	0.083
435.80	0.097
436.15	0.101
436.50	0.104
436.85	0.100
437.20	0.092
437.54	0.103
437.89	0.100
438.24	0.100
438.59	0.087
438.94	0.094
439.29	0.099
439.63	0.106
439.98	0.103
440.33	0.104
440.68	0.105
441.03	0.099
441.37	0.101
441.72	0.109
442.07	0.112
442.42	0.127
442.76	0.118
443.11	0.118
443.46	0.115
443.81	0.119
444.16	0.114
444.50	0.115
444.85	0.132
445.20	0.130
445.55	0.120
445.89	0.104
446.24	0.075
446.59	0.076
446.94	0.059
447.28	0.044
447.63	0.024
447.98	0.020
448.32	0.007
448.67	-0.016
449.02	-0.038
449.37	-0.054
449.71	-0.052
450.06	-0.064
450.41	-0.072
450.75	-0.061
451.10	-0.065
451.45	-0.060
451.79	-0.070
452.14	-0.072
452.49	-0.088
452.84	-0.093
453.18	-0.109
453.53	-0.119
453.88	-0.115
454.22	-0.113
454.57	-0.123
454.92	-0.112
455.26	-0.105
455.61	-0.082
455.95	-0.065
456.30	-0.035
456.65	-0.027
456.99	-0.001
457.34	0.008
457.69	0.029
458.03	0.024
458.38	0.043
458.73	0.039
459.07	0.042
459.42	0.028
459.76	0.017
460.11	-0.012
460.46	-0.027
460.80	-0.041
461.15	-0.062
461.49	-0.104
461.84	-0.113
462.19	-0.155
462.53	-0.169
462.88	-0.198
463.22	-0.213
463.57	-0.218
463.91	-0.204
464.26	-0.193
464.61	-0.197
464.95	-0.180
465.30	-0.160
465.64	-0.161
465.99	-0.161
466.33	-0.158
466.68	-0.141
467.02	-0.137
467.37	-0.139
467.71	-0.162
468.06	-0.153
468.41	-0.162
468.75	-0.159
469.10	-0.185
469.44	-0.194
469.79	-0.202
470.13	-0.193
470.48	-0.233
470.82	-0.244
471.17	-0.255
471.51	-0.256
471.86	-0.285
472.20	-0.291
472.55	-0.305
472.89	-0.285
473.23	-0.280
473.58	-0.282
473.92	-0.300
474.27	-0.277
474.61	-0.279
474.96	-0.285
475.30	-0.295
475.65	-0.288
475.99	-0.299
476.34	-0.300
476.68	-0.304
477.02	-0.299
477.37	-0.294
477.71	-0.285
478.06	-0.276
478.40	-0.235
478.75	-0.182
479.09	-0.127
479.43	-0.073
479.78	-0.024
480.12	0.009
480.47	0.047
480.81	0.079
481.15	0.119
481.50	0.144
481.84	0.171
482.19	0.188
482.53	0.210
482.87	0.219
483.22	0.221
483.56	0.219
483.90	0.218
484.25	0.205
484.59	0.192
484.94	0.177
485.28	0.165
485.62	0.146
485.97	0.132
486.31	0.109
486.65	0.096
487.00	0.084
487.34	0.078
487.68	0.064
488.03	0.059
488.37	0.048
488.71	0.035
489.06	0.024
489.40	0.020
489.74	-0.004
490.09	-0.025
490.43	-0.041
490.77	-0.068
491.11	-0.095
491.46	-0.110
491.80	-0.134
492.14	-0.170
492.49	-0.197
492.83	-0.221
493.17	-0.264
493.51	-0.277
493.86	-0.299
494.20	-0.334
494.54	-0.360
494.88	-0.375
495.23	-0.393
495.57	-0.404
495.91	-0.384
496.25	-0.390
496.60	-0.397
496.94	-0.394
497.28	-0.415
497.62	-0.427
497.97	-0.430
498.31	-0.423
498.65	-0.444
498.99	-0.445
499.33	-0.458
499.68	-0.479
500.02	-0.483
500.36	-0.495
500.70	-0.513
501.04	-0.513
501.39	-0.529
501.73	-0.518
502.07	-0.536
502.41	-0.521
502.75	-0.528
503.09	-0.520
503.44	-0.519
503.78	-0.515
504.12	-0.515
504.46	-0.491
504.80	-0.474
505.14	-0.455
505.49	-0.463
505.83	-0.437
506.17	-0.430
506.51	-0.422
506.85	-0.425
507.19	-0.417
507.53	-0.421
507.87	-0.418
508.22	-0.413
508.56	-0.431
508.90	-0.430
509.24	-0.428
509.58	-0.435
509.92	-0.451
510.26	-0.463
510.60	-0.459
510.94	-0.471
511.28	-0.475
511.63	-0.477
511.97	-0.492
512.31	-0.490
512.65	-0.486
512.99	-0.488
513.33	-0.490
513.67	-0.466
514.01	-0.447
514.35	-0.425
514.69	-0.405
515.03	-0.377
515.37	-0.366
515.71	-0.354
516.05	-0.336
516.39	-0.336
516.73	-0.320
517.07	-0.307
517.41	-0.306
517.75	-0.319
518.09	-0.329
518.43	-0.343
518.77	-0.367
519.11	-0.375
519.45	-0.387
519.79	-0.408
520.13	-0.416
520.47	-0.443
520.81	-0.450
521.15	-0.463
521.49	-0.448
521.83	-0.450
522.17	-0.421
522.51	-0.398
522.85	-0.370
523.19	-0.329
523.53	-0.273
523.87	-0.231
524.21	-0.174
524.55	-0.137
524.89	-0.096
525.23	-0.063
525.57	-0.031
525.91	-0.009
526.25	0.013
526.58	0.029
526.92	0.040
527.26	0.043
527.60	0.049
527.94	0.042
528.28	0.034
528.62	0.022
528.96	0.006
529.30	-0.010
529.64	-0.028
529.97	-0.050
530.31	-0.066
530.65	-0.088
530.99	-0.102
531.33	-0.111
531.67	-0.115
532.01	-0.125
532.35	-0.123
532.68	-0.132
533.02	-0.141
533.36	-0.157
533.70	-0.164
534.04	-0.190
534.38	-0.201
534.71	-0.221
535.05	-0.240
535.39	-0.255
535.73	-0.256
536.07	-0.275
536.41	-0.266
536.74	-0.252
537.08	-0.233
537.42	-0.205
537.76	-0.179
538.10	-0.156
538.43	-0.130
538.77	-0.121
539.11	-0.104
539.45	-0.093
539.79	-0.078
540.12	-0.072
540.46	-0.070
540.80	-0.077
541.14	-0.099
541.47	-0.102
541.81	-0.116
542.15	-0.132
542.49	-0.149
542.82	-0.176
543.16	-0.196
543.50	-0.225
543.84	-0.250
544.17	-0.278
544.51	-0.296
544.85	-0.305
545.18	-0.320
545.52	-0.332
545.86	-0.358
546.20	-0.375
546.53	-0.402
546.87	-0.444
547.21	-0.479
547.54	-0.514
547.88	-0.540
548.22	-0.568
548.55	-0.582
548.89	-0.606
549.23	-0.633
549.56	-0.659
549.90	-0.649
550.24	-0.643
550.57	-0.617
550.91	-0.607
551.25	-0.611
551.58	-0.609
551.92	-0.611
552.26	-0.625
552.59	-0.643
552.93	-0.661
553.27	-0.638
553.60	-0.670
553.94	-0.681
554.27	-0.698
554.61	-0.687
554.95	-0.664
555.28	-0.655
555.62	-0.655
555.95	-0.655
556.29	-0.641
556.63	-0.616
556.96	-0.611
557.30	-0.595
557.63	-0.609
557.97	-0.610
558.31	-0.604
558.64	-0.615
558.98	-0.630
559.31	-0.623
559.65	-0.614
559.98	-0.631
560.32	-0.648
560.65	-0.651
560.99	-0.639
561.33	-0.608
561.66	-0.589
562.00	-0.599
562.33	-0.587
562.67	-0.572
563.00	-0.542
563.34	-0.522
563.67	-0.507
564.01	-0.496
564.34	-0.511
564.68	-0.499
565.01	-0.504
565.35	-0.521
565.68	-0.511
566.02	-0.502
566.35	-0.493
566.69	-0.507
567.02	-0.505
567.36	-0.501
567.69	-0.485
568.03	-0.463
568.36	-0.460
568.69	-0.448
569.03	-0.422
569.36	-0.413
569.70	-0.411
570.03	-0.406
570.37	-0.401
570.70	-0.403
571.04	-0.396
571.37	-0.399
571.70	-0.395
572.04	-0.399
572.37	-0.403
572.71	-0.414
573.04	-0.416
573.37	-0.415
573.71	-0.420
574.04	-0.415
574.38	-0.427
574.71	-0.432
575.04	-0.435
575.38	-0.454
575.71	-0.466
576.05	-0.467
576.38	-0.484
576.71	-0.516
577.05	-0.547
577.38	-0.555
577.71	-0.581
578.05	-0.605
578.38	-0.618
578.71	-0.628
579.05	-0.630
579.38	-0.633
579.71	-0.671
580.05	-0.677
580.38	-0.673
580.71	-0.682
581.05	-0.707
581.38	-0.702
581.71	-0.707
582.05	-0.710
582.38	-0.708
582.71	-0.705
583.04	-0.743
583.38	-0.728
583.71	-0.732
584.04	-0.719
584.38	-0.715
584.71	-0.686
585.04	-0.696
585.37	-0.670
585.71	-0.673
586.04	-0.665
586.37	-0.670
586.70	-0.636
587.04	-0.646
587.37	-0.629
587.70	-0.632
588.03	-0.625
588.37	-0.629
588.70	-0.632
589.03	-0.637
589.36	-0.646
589.69	-0.686
590.03	-0.706
590.36	-0.723
590.69	-0.695
591.02	-0.722
591.35	-0.751
591.69	-0.765
592.02	-0.763
592.35	-0.765
592.68	-0.759
593.01	-0.735
593.35	-0.692
593.68	-0.670
594.01	-0.661
594.34	-0.675
594.67	-0.652
595.00	-0.630
595.34	-0.623
595.67	-0.636
596.00	-0.638
596.33	-0.665
596.66	-0.698
596.99	-0.724
597.32	-0.749
597.65	-0.761
597.99	-0.789
598.32	-0.847
598.65	-0.856
598.98	-0.874
599.31	-0.902
599.64	-0.898
599.97	-0.882
600.30	-0.886
600.63	-0.890
600.96	-0.890
601.30	-0.887
601.63	-0.875
601.96	-0.818
602.29	-0.830
602.62	-0.827
602.95	-0.812
603.28	-0.826
603.61	-0.845
603.94	-0.842
604.27	-0.858
604.60	-0.862
604.93	-0.872
605.26	-0.868
605.59	-0.916
605.92	-0.918
606.25	-0.947
606.58	-0.954
606.91	-0.966
607.24	-0.942
607.57	-0.953
607.90	-0.925
608.23	-0.950
608.56	-0.958
608.89	-0.994
609.22	-1.012
609.55	-1.049
609.88	-1.064
610.21	-1.094
610.54	-1.138
610.87	-1.207
611.20	-1.245
611.53	-1.317
611.86	-1.338
612.19	-1.391
612.52	-1.418
612.85	-1.426
613.18	-1.431
613.51	-1.449
613.84	-1.471
614.17	-1.462
614.49	-1.476
614.82	-1.475
615.15	-1.480
615.48	-1.497
615.81	-1.506
616.14	-1.508
616.47	-1.523
616.80	-1.535
617.13	-1.542
617.46	-1.543
617.78	-1.568
618.11	-1.584
618.44	-1.574
618.77	-1.586
619.10	-1.574
619.43	-1.566
619.76	-1.575
620.09	-1.598
620.41	-1.605
620.74	-1.594
621.07	-1.616
621.40	-1.632
621.73	-1.595
622.06	-1.598
622.38	-1.581
622.71	-1.594
623.04	-1.581
623.37	-1.559
623.70	-1.514
624.02	-1.496
624.35	-1.469
624.68	-1.431
625.01	-1.358
625.34	-1.364
625.66	-1.346
625.99	-1.355
626.32	-1.334
626.65	-1.345
626.98	-1.360
627.30	-1.381
627.63	-1.382
627.96	-1.401
628.29	-1.447
628.61	-1.486
628.94	-1.498
629.27	-1.528
629.60	-1.508
629.92	-1.536
630.25	-1.527
630.58	-1.537
630.91	-1.532
631.23	-1.556
631.56	-1.571
631.89	-1.550
632.21	-1.554
632.54	-1.577
632.87	-1.581
633.19	-1.624
633.52	-1.636
633.85	-1.636
634.18	-1.668
634.50	-1.693
634.83	-1.700
635.16	-1.709
635.48	-1.736
635.81	-1.776
636.14	-1.785
636.46	-1.817
636.79	-1.793
637.11	-1.788
637.44	-1.813
637.77	-1.811
638.09	-1.841
638.42	-1.876
638.75	-1.901
639.07	-1.915
639.40	-1.929
639.73	-1.922
640.05	-1.897
640.38	-1.936
640.70	-1.954
641.03	-1.995
641.36	-1.989
641.68	-1.993
642.01	-2.004
642.33	-1.995
642.66	-1.972
642.98	-1.976
643.31	-1.994
643.64	-2.005
