OOIBase32 Version 2.0.0.6 Data File
++++++++++++++++++++++++++++++++++++
Date: 01-23-2012, 21:41:41
User: Valued Ocean Optics Customer
Spectrometer Serial Number: USB2E2917
Spectrometer Channel: Master
Integration Time (msec): 5
Spectra Averaged: 10
Boxcar Smoothing: 5
Correct for Electrical Dark: Enabled
Time Normalized: Disabled
Dual-beam Reference: Disabled
Reference Channel: Master
Temperature: Not acquired
Spectrometer Type: S2000
ADC Type: USB2000
Number of Pixels in File: 2048
Graph Title: 
>>>>>Begin Spectral Data<<<<<
180.30	0.000
180.67	0.000
181.03	146.061
181.40	-43.649
181.77	11309.600
182.14	-36.548
182.51	101.578
182.88	6077.754
183.25	244.569
183.62	-174.916
183.99	37.618
184.36	-139.099
184.73	357.774
185.10	14.063
185.46	75.816
185.83	95.217
186.20	37.272
186.57	-197.993
186.94	-33.118
187.31	27.156
187.68	-244.452
188.05	27.527
188.42	22.385
188.78	11.365
189.15	-4.234
189.52	-0.100
189.89	-1.931
190.26	-19.934
190.63	5.374
191.00	-7.280
191.37	1.360
191.73	7.716
192.10	18.457
192.47	23.982
192.84	21.941
193.21	32.359
193.58	24.162
193.94	24.825
194.31	16.779
194.68	15.514
195.05	7.361
195.42	-15.225
195.79	-26.381
196.15	-22.165
196.52	-17.243
196.89	-29.953
197.26	-24.621
197.63	-25.249
198.00	-27.009
198.36	-15.604
198.73	-12.984
199.10	1.076
199.47	8.623
199.84	17.551
200.20	31.929
200.57	21.049
200.94	15.845
201.31	-2.380
201.68	10.462
202.04	6.461
202.41	21.405
202.78	11.727
203.15	11.557
203.51	-3.581
203.88	-7.068
204.25	-15.358
204.62	2.654
204.98	20.843
205.35	36.438
205.72	38.558
206.09	35.167
206.46	33.252
206.82	36.661
207.19	24.517
207.56	31.387
207.92	28.389
208.29	22.322
208.66	19.628
209.03	29.237
209.39	14.814
209.76	-1.958
210.13	-7.496
210.50	-26.234
210.86	-13.658
211.23	4.823
211.60	9.540
211.96	22.237
212.33	26.538
212.70	32.019
213.07	9.220
213.43	16.775
213.80	24.374
214.17	19.648
214.53	25.595
214.90	20.357
215.27	13.710
215.63	4.623
216.00	-5.136
216.37	-0.369
216.74	-9.155
217.10	2.278
217.47	2.285
217.84	4.234
218.20	24.310
218.57	29.522
218.94	30.249
219.30	38.051
219.67	43.261
220.04	42.349
220.40	36.261
220.77	25.524
221.13	23.061
221.50	16.211
221.87	11.851
222.23	-1.836
222.60	-0.452
222.97	-6.211
223.33	-14.279
223.70	-12.015
224.07	-2.913
224.43	2.551
224.80	6.704
225.16	6.300
225.53	9.125
225.90	6.453
226.26	5.379
226.63	3.521
226.99	3.962
227.36	5.668
227.73	6.097
228.09	0.220
228.46	-2.625
228.82	-3.092
229.19	-3.131
229.56	-5.883
229.92	-3.481
230.29	-1.537
230.65	0.301
231.02	1.067
231.38	-0.653
231.75	-1.381
232.12	3.083
232.48	4.470
232.85	4.651
233.21	5.637
233.58	5.901
233.94	7.526
234.31	4.735
234.68	2.403
235.04	2.757
235.41	3.763
235.77	4.312
236.14	2.887
236.50	2.059
236.87	1.212
237.23	-0.009
237.60	-0.123
237.96	-2.381
238.33	-0.212
238.69	-0.006
239.06	-0.597
239.42	-0.436
239.79	-0.273
240.15	0.033
240.52	0.361
240.88	0.636
241.25	1.759
241.61	2.176
241.98	2.796
242.34	2.493
242.71	3.094
243.07	3.537
243.44	3.816
243.80	3.632
244.17	3.766
244.53	3.922
244.90	3.650
245.26	3.516
245.63	3.347
245.99	3.336
246.36	3.647
246.72	3.292
247.09	3.064
247.45	2.747
247.81	2.741
248.18	2.521
248.54	2.368
248.91	2.609
249.27	2.597
249.64	2.897
250.00	3.041
250.36	3.052
250.73	3.693
251.09	4.326
251.46	4.659
251.82	4.910
252.19	5.626
252.55	5.104
252.91	5.015
253.28	4.127
253.64	3.839
254.01	3.650
254.37	2.974
254.73	3.031
255.10	2.862
255.46	2.859
255.83	2.382
256.19	2.388
256.55	2.424
256.92	2.508
257.28	2.778
257.65	3.044
258.01	3.115
258.37	2.905
258.74	2.772
259.10	2.689
259.46	2.685
259.83	2.795
260.19	2.464
260.55	2.618
260.92	2.561
261.28	2.404
261.64	2.112
262.01	1.983
262.37	2.104
262.73	1.855
263.10	1.958
263.46	2.249
263.82	2.602
264.19	2.518
264.55	2.592
264.91	2.603
265.28	2.968
265.64	2.602
266.00	2.341
266.37	2.414
266.73	2.603
267.09	2.628
267.46	2.478
267.82	2.520
268.18	2.838
268.54	2.749
268.91	2.782
269.27	2.669
269.63	2.921
270.00	3.186
270.36	3.282
270.72	3.208
271.08	2.784
271.45	2.582
271.81	2.511
272.17	2.402
272.53	2.364
272.90	2.249
273.26	2.263
273.62	2.170
273.98	1.914
274.35	1.778
274.71	1.984
275.07	2.381
275.43	2.665
275.80	2.667
276.16	2.913
276.52	2.875
276.88	3.069
277.25	3.083
277.61	3.178
277.97	3.041
278.33	2.889
278.69	2.800
279.06	2.878
279.42	2.587
279.78	2.307
280.14	2.048
280.50	2.107
280.87	2.022
281.23	2.013
281.59	2.023
281.95	2.334
282.31	2.615
282.68	2.658
283.04	2.611
283.40	2.689
283.76	2.646
284.12	2.672
284.48	2.640
284.85	2.647
285.21	2.570
285.57	2.633
285.93	2.600
286.29	2.491
286.65	2.414
287.02	2.310
287.38	2.333
287.74	2.557
288.10	2.570
288.46	2.615
288.82	2.695
289.18	2.797
289.54	2.663
289.91	2.767
290.27	2.853
290.63	2.819
290.99	2.650
291.35	2.673
291.71	2.786
292.07	2.698
292.43	2.818
292.79	2.918
293.16	2.933
293.52	3.017
293.88	2.988
294.24	3.023
294.60	2.956
294.96	3.082
295.32	3.046
295.68	2.786
296.04	2.969
296.40	2.949
296.76	2.947
297.12	3.044
297.49	3.156
297.85	3.248
298.21	3.258
298.57	3.377
298.93	3.570
299.29	3.636
299.65	3.836
300.01	3.909
300.37	3.813
300.73	3.794
301.09	3.791
301.45	3.861
301.81	3.860
302.17	3.945
302.53	4.037
302.89	3.961
303.25	3.960
303.61	4.112
303.97	3.958
304.33	3.871
304.69	3.856
305.05	3.832
305.41	3.678
305.77	3.678
306.13	3.741
306.49	3.878
306.85	4.021
307.21	4.187
307.57	4.128
307.93	4.235
308.29	4.499
308.65	4.554
309.01	4.535
309.37	4.718
309.73	4.775
310.09	4.751
310.45	4.669
310.81	4.670
311.17	4.551
311.53	4.663
311.89	4.783
312.25	4.700
312.61	4.776
312.96	4.932
313.32	4.937
313.68	4.869
314.04	4.945
314.40	5.028
314.76	5.148
315.12	5.374
315.48	5.497
315.84	5.450
316.20	5.680
316.56	5.809
316.92	5.792
317.27	5.663
317.63	5.734
317.99	5.764
318.35	5.637
318.71	5.527
319.07	5.495
319.43	5.528
319.79	5.628
320.15	5.546
320.50	5.379
320.86	5.577
321.22	5.731
321.58	5.887
321.94	5.913
322.30	6.158
322.66	6.343
323.01	6.433
323.37	6.384
323.73	6.376
324.09	6.372
324.45	6.571
324.81	6.444
325.17	6.431
325.52	6.489
325.88	6.525
326.24	6.562
326.60	6.629
326.96	6.673
327.31	6.742
327.67	6.820
328.03	7.004
328.39	7.006
328.75	7.133
329.11	7.373
329.46	7.255
329.82	7.395
330.18	7.470
330.54	7.499
330.90	7.542
331.25	7.547
331.61	7.527
331.97	7.441
332.33	7.476
332.68	7.399
333.04	7.336
333.40	7.544
333.76	7.561
334.11	7.474
334.47	7.469
334.83	7.458
335.19	7.525
335.54	7.614
335.90	7.728
336.26	7.755
336.62	7.856
336.97	7.855
337.33	7.755
337.69	7.793
338.05	7.798
338.40	7.755
338.76	7.814
339.12	7.826
339.48	7.842
339.83	7.829
340.19	7.779
340.55	7.720
340.90	7.812
341.26	7.845
341.62	7.718
341.97	7.841
342.33	7.929
342.69	7.918
343.04	7.864
343.40	7.852
343.76	7.873
344.12	7.933
344.47	8.065
344.83	7.938
345.19	7.941
345.54	8.097
345.90	8.121
346.26	8.001
346.61	8.064
346.97	8.121
347.32	8.175
347.68	8.137
348.04	8.117
348.39	8.148
348.75	8.349
349.11	8.377
349.46	8.233
349.82	8.143
350.18	8.227
350.53	8.112
350.89	8.054
351.24	8.025
351.60	8.029
351.96	8.088
352.31	8.085
352.67	7.965
353.02	7.961
353.38	8.042
353.74	8.085
354.09	8.150
354.45	8.249
354.80	8.306
355.16	8.269
355.52	8.342
355.87	8.309
356.23	8.227
356.58	8.239
356.94	8.214
357.29	8.220
357.65	8.230
358.00	8.189
358.36	8.139
358.72	8.157
359.07	8.244
359.43	8.247
359.78	8.296
360.14	8.292
360.49	8.356
360.85	8.397
361.20	8.421
361.56	8.480
361.91	8.494
362.27	8.549
362.62	8.507
362.98	8.426
363.33	8.389
363.69	8.362
364.04	8.378
364.40	8.373
364.75	8.418
365.11	8.434
365.46	8.377
365.82	8.390
366.17	8.396
366.53	8.460
366.88	8.485
367.24	8.572
367.59	8.629
367.95	8.717
368.30	8.706
368.66	8.696
369.01	8.712
369.37	8.752
369.72	8.754
370.08	8.788
370.43	8.831
370.78	8.849
371.14	8.883
371.49	8.887
371.85	8.883
372.20	8.919
372.56	8.978
372.91	9.003
373.26	8.975
373.62	8.948
373.97	8.906
374.33	8.900
374.68	8.916
375.03	8.889
375.39	8.865
375.74	8.818
376.10	8.789
376.45	8.781
376.80	8.780
377.16	8.860
377.51	8.978
377.87	9.044
378.22	9.057
378.57	9.124
378.93	9.150
379.28	9.171
379.63	9.240
379.99	9.291
380.34	9.334
380.70	9.406
381.05	9.426
381.40	9.389
381.76	9.411
382.11	9.460
382.46	9.413
382.82	9.493
383.17	9.570
383.52	9.595
383.88	9.570
384.23	9.529
384.58	9.445
384.94	9.398
385.29	9.420
385.64	9.433
385.99	9.440
386.35	9.545
386.70	9.474
387.05	9.433
387.41	9.450
387.76	9.508
388.11	9.525
388.47	9.594
388.82	9.639
389.17	9.649
389.52	9.615
389.88	9.604
390.23	9.592
390.58	9.645
390.93	9.650
391.29	9.682
391.64	9.680
391.99	9.672
392.34	9.668
392.70	9.666
393.05	9.665
393.40	9.674
393.75	9.709
394.11	9.660
394.46	9.625
394.81	9.643
395.16	9.576
395.52	9.560
395.87	9.549
396.22	9.498
396.57	9.473
396.92	9.457
397.28	9.470
397.63	9.446
397.98	9.456
398.33	9.454
398.68	9.458
399.04	9.483
399.39	9.493
399.74	9.506
400.09	9.477
400.44	9.467
400.80	9.468
401.15	9.427
401.50	9.405
401.85	9.422
402.20	9.385
402.55	9.356
402.90	9.334
403.26	9.339
403.61	9.353
403.96	9.390
404.31	9.415
404.66	9.409
405.01	9.460
405.36	9.467
405.72	9.442
406.07	9.467
406.42	9.476
406.77	9.487
407.12	9.434
407.47	9.413
407.82	9.420
408.17	9.398
408.53	9.394
408.88	9.385
409.23	9.369
409.58	9.363
409.93	9.305
410.28	9.317
410.63	9.311
410.98	9.307
411.33	9.278
411.68	9.238
412.03	9.214
412.38	9.205
412.73	9.153
413.09	9.120
413.44	9.096
413.79	9.112
414.14	9.046
414.49	9.005
414.84	8.994
415.19	8.987
415.54	8.999
415.89	8.967
416.24	8.923
416.59	8.900
416.94	8.886
417.29	8.876
417.64	8.851
417.99	8.868
418.34	8.862
418.69	8.832
419.04	8.808
419.39	8.763
419.74	8.748
420.09	8.743
420.44	8.754
420.79	8.738
421.14	8.716
421.49	8.711
421.84	8.696
422.19	8.686
422.54	8.703
422.89	8.699
423.24	8.720
423.59	8.725
423.94	8.728
424.29	8.696
424.64	8.700
424.99	8.711
425.34	8.729
425.68	8.733
426.03	8.760
426.38	8.734
426.73	8.750
427.08	8.732
427.43	8.756
427.78	8.760
428.13	8.792
428.48	8.796
428.83	8.809
429.18	8.788
429.53	8.783
429.87	8.766
430.22	8.773
430.57	8.769
430.92	8.773
431.27	8.761
431.62	8.754
431.97	8.735
432.32	8.744
432.67	8.743
433.01	8.740
433.36	8.741
433.71	8.763
434.06	8.764
434.41	8.793
434.76	8.829
435.11	8.836
435.45	8.847
435.80	8.852
436.15	8.851
436.50	8.843
436.85	8.857
437.20	8.853
437.54	8.834
437.89	8.838
438.24	8.817
438.59	8.793
438.94	8.807
439.29	8.805
439.63	8.797
439.98	8.789
440.33	8.773
440.68	8.760
441.03	8.738
441.37	8.715
441.72	8.694
442.07	8.672
442.42	8.663
442.76	8.628
443.11	8.605
443.46	8.609
443.81	8.587
444.16	8.576
444.50	8.558
444.85	8.549
445.20	8.537
445.55	8.523
445.89	8.503
446.24	8.471
446.59	8.454
446.94	8.436
447.28	8.410
447.63	8.390
447.98	8.385
448.32	8.387
448.67	8.367
449.02	8.354
449.37	8.357
449.71	8.345
450.06	8.346
450.41	8.342
450.75	8.345
451.10	8.321
451.45	8.340
451.79	8.322
452.14	8.291
452.49	8.312
452.84	8.321
453.18	8.288
453.53	8.292
453.88	8.304
454.22	8.318
454.57	8.333
454.92	8.356
455.26	8.354
455.61	8.373
455.95	8.406
456.30	8.421
456.65	8.441
456.99	8.490
457.34	8.515
457.69	8.546
458.03	8.541
458.38	8.557
458.73	8.575
459.07	8.607
459.42	8.628
459.76	8.628
460.11	8.632
460.46	8.648
460.80	8.659
461.15	8.678
461.49	8.666
461.84	8.717
462.19	8.750
462.53	8.793
462.88	8.789
463.22	8.808
463.57	8.859
463.91	8.900
464.26	8.923
464.61	8.951
464.95	8.979
465.30	9.002
465.64	9.022
465.99	9.033
466.33	9.037
466.68	9.071
467.02	9.097
467.37	9.100
467.71	9.113
468.06	9.129
468.41	9.139
468.75	9.148
469.10	9.164
469.44	9.156
469.79	9.165
470.13	9.186
470.48	9.169
470.82	9.168
471.17	9.181
471.51	9.177
471.86	9.188
472.20	9.180
472.55	9.200
472.89	9.206
473.23	9.195
473.58	9.173
473.92	9.152
474.27	9.154
474.61	9.149
474.96	9.137
475.30	9.116
475.65	9.092
475.99	9.093
476.34	9.061
476.68	9.052
477.02	9.072
477.37	9.078
477.71	9.077
478.06	9.103
478.40	9.109
478.75	9.145
479.09	9.208
479.43	9.288
479.78	9.389
480.12	9.508
480.47	9.636
480.81	9.777
481.15	9.935
481.50	10.096
481.84	10.280
482.19	10.468
482.53	10.632
482.87	10.718
483.22	10.712
483.56	10.616
483.90	10.466
484.25	10.273
484.59	10.086
484.94	9.932
485.28	9.780
485.62	9.596
485.97	9.410
486.31	9.245
486.65	9.148
487.00	9.133
487.34	9.208
487.68	9.317
488.03	9.459
488.37	9.566
488.71	9.623
489.06	9.657
489.40	9.690
489.74	9.711
490.09	9.731
490.43	9.753
490.77	9.784
491.11	9.799
491.46	9.831
491.80	9.866
492.14	9.896
492.49	9.932
492.83	9.970
493.17	9.997
493.51	10.038
493.86	10.104
494.20	10.175
494.54	10.234
494.88	10.297
495.23	10.374
495.57	10.461
495.91	10.570
496.25	10.641
496.60	10.718
496.94	10.830
497.28	10.954
497.62	11.067
497.97	11.194
498.31	11.318
498.65	11.441
498.99	11.594
499.33	11.721
499.68	11.859
500.02	12.019
500.36	12.192
500.70	12.342
501.04	12.510
501.39	12.641
501.73	12.801
502.07	12.970
502.41	13.162
502.75	13.313
503.09	13.497
503.44	13.693
503.78	13.888
504.12	14.104
504.46	14.318
504.80	14.501
505.14	14.733
505.49	14.933
505.83	15.157
506.17	15.362
506.51	15.576
506.85	15.787
507.19	16.019
507.53	16.249
507.87	16.464
508.22	16.664
508.56	16.897
508.90	17.129
509.24	17.369
509.58	17.602
509.92	17.842
510.26	18.084
510.60	18.331
510.94	18.558
511.28	18.802
511.63	19.072
511.97	19.349
512.31	19.609
512.65	19.842
512.99	20.096
513.33	20.367
513.67	20.662
514.01	20.957
514.35	21.230
514.69	21.502
515.03	21.751
515.37	21.951
515.71	22.169
516.05	22.372
516.39	22.569
516.73	22.757
517.07	22.948
517.41	23.106
517.75	23.268
518.09	23.432
518.43	23.580
518.77	23.740
519.11	23.933
519.45	24.102
519.79	24.288
520.13	24.507
520.47	24.704
520.81	24.884
521.15	25.086
521.49	25.278
521.83	25.437
522.17	25.610
522.51	25.788
522.85	25.988
523.19	26.219
523.53	26.487
523.87	26.744
524.21	27.018
524.55	27.289
524.89	27.531
525.23	27.745
525.57	27.968
525.91	28.173
526.25	28.348
526.58	28.499
526.92	28.623
527.26	28.702
527.60	28.765
527.94	28.795
528.28	28.815
528.62	28.827
528.96	28.844
529.30	28.856
529.64	28.842
529.97	28.844
530.31	28.815
530.65	28.820
530.99	28.838
531.33	28.862
531.67	28.926
532.01	28.983
532.35	29.025
532.68	29.037
533.02	29.049
533.36	29.074
533.70	29.096
534.04	29.142
534.38	29.157
534.71	29.205
535.05	29.260
535.39	29.278
535.73	29.311
536.07	29.357
536.41	29.459
536.74	29.545
537.08	29.632
537.42	29.702
537.76	29.785
538.10	29.866
538.43	29.949
538.77	29.989
539.11	30.068
539.45	30.121
539.79	30.153
540.12	30.166
540.46	30.158
540.80	30.158
541.14	30.137
541.47	30.123
541.81	30.112
542.15	30.082
542.49	30.069
542.82	30.012
543.16	29.974
543.50	29.959
543.84	29.942
544.17	29.949
544.51	29.963
544.85	29.992
545.18	29.985
545.52	29.966
545.86	29.948
546.20	29.952
546.53	29.959
546.87	29.971
547.21	29.966
547.54	29.974
547.88	30.005
548.22	29.972
548.55	29.983
548.89	30.001
549.23	30.023
549.56	30.034
549.90	30.059
550.24	30.064
550.57	30.059
550.91	30.059
551.25	30.062
551.58	30.020
551.92	30.055
552.26	30.031
552.59	30.025
552.93	30.056
553.27	30.071
553.60	30.073
553.94	30.126
554.27	30.134
554.61	30.180
554.95	30.206
555.28	30.233
555.62	30.240
555.95	30.283
556.29	30.286
556.63	30.269
556.96	30.253
557.30	30.264
557.63	30.241
557.97	30.252
558.31	30.253
558.64	30.242
558.98	30.246
559.31	30.223
559.65	30.216
559.98	30.214
560.32	30.208
560.65	30.201
560.99	30.168
561.33	30.182
561.66	30.171
562.00	30.137
562.33	30.111
562.67	30.107
563.00	30.078
563.34	30.065
563.67	30.046
564.01	30.028
564.34	30.030
564.68	30.034
565.01	29.978
565.35	29.951
565.68	29.933
566.02	29.958
566.35	29.938
566.69	29.949
567.02	29.931
567.36	29.935
567.69	29.913
568.03	29.887
568.36	29.884
568.69	29.891
569.03	29.901
569.36	29.895
569.70	29.839
570.03	29.796
570.37	29.759
570.70	29.757
571.04	29.756
571.37	29.711
571.70	29.719
572.04	29.702
572.37	29.676
572.71	29.625
573.04	29.591
573.37	29.603
573.71	29.624
574.04	29.640
574.38	29.627
574.71	29.612
575.04	29.669
575.38	29.661
575.71	29.651
576.05	29.668
576.38	29.711
576.71	29.701
577.05	29.678
577.38	29.680
577.71	29.679
578.05	29.666
578.38	29.638
578.71	29.611
579.05	29.549
579.38	29.541
579.71	29.515
580.05	29.454
580.38	29.448
580.71	29.429
581.05	29.426
581.38	29.400
581.71	29.386
582.05	29.348
582.38	29.331
582.71	29.361
583.04	29.332
583.38	29.327
583.71	29.300
584.04	29.302
584.38	29.283
584.71	29.207
585.04	29.179
585.37	29.169
585.71	29.179
586.04	29.177
586.37	29.120
586.70	29.092
587.04	29.029
587.37	29.040
587.70	29.018
588.03	29.001
588.37	28.983
588.70	28.946
589.03	28.912
589.36	28.896
589.69	28.812
590.03	28.809
590.36	28.742
590.69	28.739
591.02	28.692
591.35	28.651
591.69	28.600
592.02	28.540
592.35	28.474
592.68	28.432
593.01	28.362
593.35	28.350
593.68	28.304
594.01	28.277
594.34	28.253
594.67	28.209
595.00	28.162
595.34	28.097
595.67	28.084
596.00	28.066
596.33	27.998
596.66	27.984
596.99	27.963
597.32	27.905
597.65	27.883
597.99	27.802
598.32	27.771
598.65	27.715
598.98	27.700
599.31	27.668
599.64	27.651
599.97	27.654
600.30	27.603
600.63	27.539
600.96	27.498
601.30	27.434
601.63	27.407
601.96	27.346
602.29	27.318
602.62	27.324
602.95	27.259
603.28	27.208
603.61	27.173
603.94	27.145
604.27	27.141
604.60	27.102
604.93	27.113
605.26	27.080
605.59	27.103
605.92	27.092
606.25	27.039
606.58	27.051
606.91	27.027
607.24	26.975
607.57	26.906
607.90	26.853
608.23	26.843
608.56	26.788
608.89	26.795
609.22	26.718
609.55	26.679
609.88	26.671
610.21	26.653
610.54	26.669
610.87	26.685
611.20	26.722
611.53	26.746
611.86	26.760
612.19	26.763
612.52	26.716
612.85	26.743
613.18	26.727
613.51	26.634
613.84	26.573
614.17	26.503
614.49	26.454
614.82	26.403
615.15	26.328
615.48	26.244
615.81	26.202
616.14	26.204
616.47	26.171
616.80	26.137
617.13	26.128
617.46	26.117
617.78	26.088
618.11	26.051
618.44	26.000
618.77	25.930
619.10	25.912
619.43	25.907
619.76	25.850
620.09	25.791
620.41	25.779
620.74	25.756
621.07	25.716
621.40	25.664
621.73	25.599
622.06	25.546
622.38	25.520
622.71	25.483
623.04	25.410
623.37	25.396
623.70	25.364
624.02	25.304
624.35	25.287
624.68	25.224
625.01	25.196
625.34	25.171
625.66	25.139
625.99	25.126
626.32	25.096
626.65	25.102
626.98	25.038
627.30	24.995
627.63	24.987
627.96	24.986
628.29	24.993
628.61	24.972
628.94	24.970
629.27	24.955
629.60	24.951
629.92	24.891
630.25	24.840
630.58	24.783
630.91	24.757
631.23	24.717
631.56	24.655
631.89	24.666
632.21	24.625
632.54	24.540
632.87	24.513
633.19	24.437
633.52	24.444
633.85	24.393
634.18	24.340
634.50	24.298
634.83	24.244
635.16	24.181
635.48	24.096
635.81	24.045
636.14	24.042
636.46	23.964
636.79	23.957
637.11	23.911
637.44	23.873
637.77	23.857
638.09	23.810
638.42	23.765
638.75	23.754
639.07	23.685
639.40	23.652
639.73	23.641
640.05	23.729
640.38	23.696
640.70	23.694
641.03	23.717
641.36	23.739
641.68	23.776
642.01	23.751
642.33	23.699
642.66	23.690
642.98	23.687
643.31	23.647
643.64	23.512
643.96	23.487
644.29	23.449
644.61	23.400
644.94	23.360
645.26	23.239
645.59	23.249
645.91	23.245
646.24	23.301
646.56	23.315
646.89	23.263
647.22	23.291
647.54	23.263
647.87	23.193
648.19	23.164
648.52	23.150
648.84	23.210
