OOIBase32 Version 2.0.0.6 Data File
++++++++++++++++++++++++++++++++++++
Date: 01-23-2012, 21:53:44
User: Valued Ocean Optics Customer
Spectrometer Serial Number: USB2E2917
Spectrometer Channel: Master
Integration Time (msec): 5
Spectra Averaged: 10
Boxcar Smoothing: 5
Correct for Electrical Dark: Enabled
Time Normalized: Disabled
Dual-beam Reference: Disabled
Reference Channel: Master
Temperature: Not acquired
Spectrometer Type: S2000
ADC Type: USB2000
Number of Pixels in File: 2048
Graph Title: 
>>>>>Begin Spectral Data<<<<<
180.30	0.000
180.67	0.000
181.03	170.373
181.40	-136.072
181.77	15089.667
182.14	-16.271
182.51	162.888
182.88	-2776.748
183.25	441.204
183.62	-85.947
183.99	81.787
184.36	-370.686
184.73	29.415
185.10	-56.464
185.46	17.299
185.83	110.514
186.20	98.582
186.57	279.850
186.94	132.027
187.31	78.868
187.68	-292.059
188.05	27.107
188.42	40.068
188.78	39.798
189.15	38.996
189.52	38.140
189.89	24.941
190.26	6.562
190.63	23.440
191.00	11.953
191.37	15.768
191.73	17.734
192.10	16.594
192.47	17.478
192.84	15.098
193.21	15.723
193.58	18.941
193.94	17.374
194.31	13.991
194.68	10.667
195.05	8.480
195.42	-7.511
195.79	-12.707
196.15	-8.949
196.52	-11.001
196.89	-14.542
197.26	-14.012
197.63	-23.442
198.00	-16.463
198.36	-9.561
198.73	-7.774
199.10	-13.368
199.47	1.780
199.84	2.051
200.20	11.397
200.57	-14.142
200.94	-6.476
201.31	-15.569
201.68	-1.072
202.04	-9.407
202.41	5.223
202.78	-2.355
203.15	2.919
203.51	-22.954
203.88	-8.547
204.25	-26.609
204.62	5.923
204.98	7.590
205.35	30.490
205.72	34.562
206.09	35.977
206.46	31.489
206.82	43.775
207.19	49.704
207.56	40.420
207.92	29.650
208.29	32.454
208.66	8.477
209.03	15.802
209.39	1.852
209.76	-5.330
210.13	-7.698
210.50	-14.060
210.86	-29.571
211.23	-18.655
211.60	-16.043
211.96	-6.371
212.33	-11.380
212.70	7.422
213.07	-3.294
213.43	3.403
213.80	3.047
214.17	-7.293
214.53	-2.304
214.90	3.101
215.27	3.950
215.63	5.204
216.00	1.325
216.37	15.106
216.74	5.675
217.10	7.262
217.47	-8.466
217.84	-3.924
218.20	13.002
218.57	11.017
218.94	0.308
219.30	-4.037
219.67	-8.231
220.04	-3.473
220.40	-20.209
220.77	-17.985
221.13	-25.326
221.50	-22.304
221.87	-21.618
222.23	-30.648
222.60	-26.882
222.97	-20.561
223.33	-23.642
223.70	-21.977
224.07	-15.720
224.43	-6.418
224.80	-4.205
225.16	-1.784
225.53	-0.599
225.90	-2.785
226.26	-2.742
226.63	-2.784
226.99	-2.727
227.36	-0.889
227.73	-0.925
228.09	-4.695
228.46	-8.080
228.82	-6.387
229.19	-5.673
229.56	-8.352
229.92	-8.918
230.29	-7.955
230.65	-7.139
231.02	-5.516
231.38	-8.580
231.75	-6.431
232.12	-3.564
232.48	-1.341
232.85	-3.188
233.21	-2.556
233.58	-0.559
233.94	1.455
234.31	-0.040
234.68	-0.068
235.04	-2.091
235.41	0.428
235.77	-0.225
236.14	-0.777
236.50	-3.051
236.87	-1.809
237.23	-2.606
237.60	-1.472
237.96	-1.773
238.33	-0.148
238.69	0.081
239.06	0.482
239.42	-0.017
239.79	0.375
240.15	-0.090
240.52	0.543
240.88	0.593
241.25	1.094
241.61	0.836
241.98	1.576
242.34	1.373
242.71	1.654
243.07	1.926
243.44	2.497
243.80	2.367
244.17	2.838
244.53	2.990
244.90	2.741
245.26	2.703
245.63	2.819
245.99	2.346
246.36	2.451
246.72	1.705
247.09	1.774
247.45	1.317
247.81	1.207
248.18	0.753
248.54	0.769
248.91	0.609
249.27	0.677
249.64	0.218
250.00	0.691
250.36	0.724
250.73	1.388
251.09	0.835
251.46	1.361
251.82	1.458
252.19	1.739
252.55	1.314
252.91	1.530
253.28	0.907
253.64	1.458
254.01	1.152
254.37	1.281
254.73	1.569
255.10	2.389
255.46	1.783
255.83	1.604
256.19	1.660
256.55	1.691
256.92	1.691
257.28	1.876
257.65	1.820
258.01	1.888
258.37	1.532
258.74	1.525
259.10	1.379
259.46	1.759
259.83	1.871
260.19	1.937
260.55	1.922
260.92	1.773
261.28	1.546
261.64	1.493
262.01	1.527
262.37	1.479
262.73	1.072
263.10	1.002
263.46	0.780
263.82	0.787
264.19	0.422
264.55	0.675
264.91	1.056
265.28	1.446
265.64	1.615
266.00	1.575
266.37	1.782
266.73	2.206
267.09	1.959
267.46	1.946
267.82	1.973
268.18	2.305
268.54	2.164
268.91	2.131
269.27	1.902
269.63	1.711
270.00	1.726
270.36	1.774
270.72	1.504
271.08	1.262
271.45	1.249
271.81	1.404
272.17	1.285
272.53	1.166
272.90	0.810
273.26	0.780
273.62	0.759
273.98	0.674
274.35	0.356
274.71	0.609
275.07	0.987
275.43	1.158
275.80	1.036
276.16	1.524
276.52	1.553
276.88	1.946
277.25	2.033
277.61	2.314
277.97	2.104
278.33	2.093
278.69	1.998
279.06	2.276
279.42	1.902
279.78	1.975
280.14	1.438
280.50	1.486
280.87	1.299
281.23	1.473
281.59	1.266
281.95	1.363
282.31	1.574
282.68	1.758
283.04	1.612
283.40	1.886
283.76	1.585
284.12	1.759
284.48	1.630
284.85	1.719
285.21	1.500
285.57	1.595
285.93	1.573
286.29	1.484
286.65	1.259
287.02	1.318
287.38	1.173
287.74	1.379
288.10	1.268
288.46	1.458
288.82	1.301
289.18	1.367
289.54	1.289
289.91	1.580
290.27	1.680
290.63	1.794
290.99	1.558
291.35	1.757
291.71	1.932
292.07	2.041
292.43	2.065
292.79	2.401
293.16	2.473
293.52	2.639
293.88	2.556
294.24	2.625
294.60	2.499
294.96	2.732
295.32	2.765
295.68	2.591
296.04	2.664
296.40	2.658
296.76	2.613
297.12	2.726
297.49	2.745
297.85	2.955
298.21	3.094
298.57	3.246
298.93	3.184
299.29	3.206
299.65	3.194
300.01	3.319
300.37	3.276
300.73	3.529
301.09	3.601
301.45	3.718
301.81	3.504
302.17	3.528
302.53	3.569
302.89	3.590
303.25	3.371
303.61	3.710
303.97	3.660
304.33	3.930
304.69	3.723
305.05	3.641
305.41	3.557
305.77	3.664
306.13	3.608
306.49	3.804
306.85	3.844
307.21	4.167
307.57	4.009
307.93	3.949
308.29	3.886
308.65	3.907
309.01	3.885
309.37	4.039
309.73	4.082
310.09	4.148
310.45	4.009
310.81	4.038
311.17	3.785
311.53	3.853
311.89	3.850
312.25	3.749
312.61	3.696
312.96	3.827
313.32	3.733
313.68	3.639
314.04	3.614
314.40	3.629
314.76	3.688
315.12	3.947
315.48	4.012
315.84	4.008
316.20	4.157
316.56	4.266
316.92	4.212
317.27	4.115
317.63	4.004
317.99	3.979
318.35	3.902
318.71	3.879
319.07	3.757
319.43	3.726
319.79	3.695
320.15	3.604
320.50	3.438
320.86	3.499
321.22	3.559
321.58	3.680
321.94	3.568
322.30	3.646
322.66	3.623
323.01	3.637
323.37	3.523
323.73	3.590
324.09	3.641
324.45	3.800
324.81	3.652
325.17	3.603
325.52	3.644
325.88	3.770
326.24	3.821
326.60	3.887
326.96	3.971
327.31	3.911
327.67	3.867
328.03	3.833
328.39	3.645
328.75	3.810
329.11	3.839
329.46	3.741
329.82	3.665
330.18	3.667
330.54	3.532
330.90	3.452
331.25	3.442
331.61	3.424
331.97	3.386
332.33	3.575
332.68	3.411
333.04	3.450
333.40	3.497
333.76	3.455
334.11	3.244
334.47	3.254
334.83	3.130
335.19	3.284
335.54	3.312
335.90	3.343
336.26	3.200
336.62	3.326
336.97	3.225
337.33	3.202
337.69	3.252
338.05	3.444
338.40	3.442
338.76	3.498
339.12	3.333
339.48	3.336
339.83	3.289
340.19	3.371
340.55	3.231
340.90	3.271
341.26	3.186
341.62	3.130
341.97	3.035
342.33	3.121
342.69	3.070
343.04	3.125
343.40	3.087
343.76	3.109
344.12	3.073
344.47	3.168
344.83	3.055
345.19	3.067
345.54	3.065
345.90	3.068
346.26	2.937
346.61	3.071
346.97	3.029
347.32	3.121
347.68	3.002
348.04	2.988
348.39	2.935
348.75	3.052
349.11	3.025
349.46	3.056
349.82	3.021
350.18	3.025
350.53	2.879
350.89	2.958
351.24	2.839
351.60	2.938
351.96	2.903
352.31	2.945
352.67	2.869
353.02	2.895
353.38	2.859
353.74	2.922
354.09	2.972
354.45	3.080
354.80	3.003
355.16	2.993
355.52	2.929
355.87	2.897
356.23	2.808
356.58	2.877
356.94	2.832
357.29	2.785
357.65	2.692
358.00	2.647
358.36	2.608
358.72	2.666
359.07	2.690
359.43	2.745
359.78	2.791
360.14	2.809
360.49	2.764
360.85	2.810
361.20	2.863
361.56	2.913
361.91	2.946
362.27	2.941
362.62	2.873
362.98	2.831
363.33	2.777
363.69	2.712
364.04	2.700
364.40	2.663
364.75	2.617
365.11	2.645
365.46	2.654
365.82	2.610
366.17	2.540
366.53	2.581
366.88	2.570
367.24	2.600
367.59	2.647
367.95	2.635
368.30	2.640
368.66	2.673
369.01	2.620
369.37	2.603
369.72	2.597
370.08	2.657
370.43	2.613
370.78	2.633
371.14	2.624
371.49	2.622
371.85	2.601
372.20	2.637
372.56	2.661
372.91	2.621
373.26	2.580
373.62	2.577
373.97	2.533
374.33	2.548
374.68	2.537
375.03	2.553
375.39	2.516
375.74	2.545
376.10	2.480
376.45	2.469
376.80	2.513
377.16	2.545
377.51	2.553
377.87	2.570
378.22	2.535
378.57	2.559
378.93	2.538
379.28	2.603
379.63	2.599
379.99	2.641
380.34	2.642
380.70	2.663
381.05	2.654
381.40	2.631
381.76	2.619
382.11	2.674
382.46	2.616
382.82	2.584
383.17	2.560
383.52	2.552
383.88	2.502
384.23	2.476
384.58	2.417
384.94	2.417
385.29	2.415
385.64	2.427
385.99	2.425
386.35	2.464
386.70	2.474
387.05	2.428
387.41	2.426
387.76	2.433
388.11	2.390
388.47	2.384
388.82	2.358
389.17	2.379
389.52	2.344
389.88	2.304
390.23	2.295
390.58	2.290
390.93	2.267
391.29	2.299
391.64	2.310
391.99	2.329
392.34	2.359
392.70	2.371
393.05	2.348
393.40	2.335
393.75	2.306
394.11	2.275
394.46	2.257
394.81	2.227
395.16	2.135
395.52	2.131
395.87	2.110
396.22	2.053
396.57	1.997
396.92	1.977
397.28	2.002
397.63	1.990
397.98	2.017
398.33	2.022
398.68	2.063
399.04	2.075
399.39	2.063
399.74	2.056
400.09	2.050
400.44	2.052
400.80	2.026
401.15	1.986
401.50	1.989
401.85	1.990
402.20	1.978
402.55	1.981
402.90	1.954
403.26	1.959
403.61	1.969
403.96	1.984
404.31	1.975
404.66	2.010
405.01	2.031
405.36	2.060
405.72	2.002
406.07	2.014
406.42	1.990
406.77	1.998
407.12	1.952
407.47	1.951
407.82	1.935
408.17	1.949
408.53	1.942
408.88	1.941
409.23	1.915
409.58	1.930
409.93	1.887
410.28	1.878
410.63	1.878
410.98	1.899
411.33	1.825
411.68	1.821
412.03	1.842
412.38	1.833
412.73	1.825
413.09	1.829
413.44	1.849
413.79	1.890
414.14	1.892
414.49	1.921
414.84	1.924
415.19	1.989
415.54	2.001
415.89	2.013
416.24	2.012
416.59	2.022
416.94	2.034
417.29	2.038
417.64	2.030
417.99	2.051
418.34	2.056
418.69	2.057
419.04	2.058
419.39	2.074
419.74	2.065
420.09	2.073
420.44	2.081
420.79	2.070
421.14	2.052
421.49	2.063
421.84	2.063
422.19	2.061
422.54	2.078
422.89	2.070
423.24	2.061
423.59	2.070
423.94	2.067
424.29	2.050
424.64	2.044
424.99	2.068
425.34	2.073
425.68	2.060
426.03	2.060
426.38	2.037
426.73	2.030
427.08	2.012
427.43	1.995
427.78	2.003
428.13	1.988
428.48	2.019
428.83	2.000
429.18	1.991
429.53	1.986
429.87	1.973
430.22	1.956
430.57	1.968
430.92	1.969
431.27	1.969
431.62	1.945
431.97	1.946
432.32	1.919
432.67	1.924
433.01	1.900
433.36	1.911
433.71	1.915
434.06	1.931
434.41	1.924
434.76	1.940
435.11	1.916
435.45	1.927
435.80	1.916
436.15	1.924
436.50	1.927
436.85	1.930
437.20	1.933
437.54	1.929
437.89	1.908
438.24	1.907
438.59	1.891
438.94	1.913
439.29	1.908
439.63	1.916
439.98	1.917
440.33	1.898
440.68	1.891
441.03	1.875
441.37	1.867
441.72	1.869
442.07	1.873
442.42	1.883
442.76	1.875
443.11	1.881
443.46	1.885
443.81	1.894
444.16	1.908
444.50	1.907
444.85	1.916
445.20	1.915
445.55	1.927
445.89	1.919
446.24	1.901
446.59	1.894
446.94	1.883
447.28	1.876
447.63	1.848
447.98	1.834
448.32	1.841
448.67	1.817
449.02	1.816
449.37	1.810
449.71	1.797
450.06	1.773
450.41	1.770
450.75	1.770
451.10	1.753
451.45	1.751
451.79	1.752
452.14	1.732
452.49	1.730
452.84	1.723
453.18	1.699
453.53	1.704
453.88	1.719
454.22	1.725
454.57	1.721
454.92	1.738
455.26	1.754
455.61	1.755
455.95	1.778
456.30	1.783
456.65	1.787
456.99	1.798
457.34	1.794
457.69	1.818
458.03	1.807
458.38	1.811
458.73	1.809
459.07	1.815
459.42	1.813
459.76	1.797
460.11	1.778
460.46	1.762
460.80	1.767
461.15	1.767
461.49	1.734
461.84	1.747
462.19	1.746
462.53	1.750
462.88	1.711
463.22	1.709
463.57	1.711
463.91	1.740
464.26	1.753
464.61	1.747
464.95	1.740
465.30	1.738
465.64	1.715
465.99	1.716
466.33	1.699
466.68	1.720
467.02	1.715
467.37	1.720
467.71	1.707
468.06	1.711
468.41	1.702
468.75	1.701
469.10	1.691
469.44	1.691
469.79	1.671
470.13	1.667
470.48	1.633
470.82	1.629
471.17	1.602
471.51	1.598
471.86	1.578
472.20	1.573
472.55	1.581
472.89	1.599
473.23	1.602
473.58	1.587
473.92	1.591
474.27	1.608
474.61	1.596
474.96	1.598
475.30	1.586
475.65	1.572
475.99	1.570
476.34	1.561
476.68	1.549
477.02	1.543
477.37	1.558
477.71	1.574
478.06	1.585
478.40	1.615
478.75	1.659
479.09	1.704
479.43	1.753
479.78	1.806
480.12	1.854
480.47	1.902
480.81	1.958
481.15	2.018
481.50	2.062
481.84	2.119
482.19	2.170
482.53	2.221
482.87	2.249
483.22	2.250
483.56	2.228
483.90	2.193
484.25	2.148
484.59	2.105
484.94	2.062
485.28	2.018
485.62	1.967
485.97	1.921
486.31	1.865
486.65	1.834
487.00	1.825
487.34	1.833
487.68	1.837
488.03	1.850
488.37	1.854
488.71	1.854
489.06	1.852
489.40	1.845
489.74	1.825
490.09	1.814
490.43	1.788
490.77	1.771
491.11	1.741
491.46	1.731
491.80	1.710
492.14	1.688
492.49	1.646
492.83	1.617
493.17	1.565
493.51	1.544
493.86	1.513
494.20	1.496
494.54	1.459
494.88	1.446
495.23	1.433
495.57	1.438
495.91	1.439
496.25	1.447
496.60	1.452
496.94	1.470
497.28	1.448
497.62	1.436
497.97	1.428
498.31	1.439
498.65	1.414
498.99	1.419
499.33	1.399
499.68	1.391
500.02	1.369
500.36	1.344
500.70	1.317
501.04	1.325
501.39	1.324
501.73	1.332
502.07	1.321
502.41	1.343
502.75	1.332
503.09	1.340
503.44	1.329
503.78	1.345
504.12	1.352
504.46	1.375
504.80	1.370
505.14	1.375
505.49	1.365
505.83	1.385
506.17	1.382
506.51	1.383
506.85	1.374
507.19	1.393
507.53	1.385
507.87	1.387
508.22	1.390
508.56	1.392
508.90	1.380
509.24	1.385
509.58	1.374
509.92	1.367
510.26	1.356
510.60	1.371
510.94	1.357
511.28	1.361
511.63	1.360
511.97	1.354
512.31	1.362
512.65	1.367
512.99	1.359
513.33	1.358
513.67	1.375
514.01	1.399
514.35	1.408
514.69	1.421
515.03	1.434
515.37	1.450
515.71	1.452
516.05	1.456
516.39	1.452
516.73	1.471
517.07	1.479
517.41	1.481
517.75	1.464
518.09	1.457
518.43	1.440
518.77	1.419
519.11	1.409
519.45	1.397
519.79	1.379
520.13	1.379
520.47	1.351
520.81	1.344
521.15	1.343
521.49	1.362
521.83	1.349
522.17	1.375
522.51	1.407
522.85	1.425
523.19	1.471
523.53	1.526
523.87	1.569
524.21	1.620
524.55	1.664
524.89	1.700
525.23	1.731
525.57	1.777
525.91	1.792
526.25	1.816
526.58	1.835
526.92	1.845
527.26	1.850
527.60	1.859
527.94	1.860
528.28	1.850
528.62	1.839
528.96	1.823
529.30	1.797
529.64	1.784
529.97	1.761
530.31	1.749
530.65	1.723
530.99	1.710
531.33	1.690
531.67	1.680
532.01	1.664
532.35	1.661
532.68	1.658
533.02	1.660
533.36	1.642
533.70	1.635
534.04	1.613
534.38	1.610
534.71	1.590
535.05	1.570
535.39	1.544
535.73	1.548
536.07	1.525
536.41	1.529
536.74	1.532
537.08	1.562
537.42	1.575
537.76	1.595
538.10	1.608
538.43	1.630
538.77	1.647
539.11	1.670
539.45	1.680
539.79	1.698
540.12	1.705
540.46	1.704
540.80	1.692
541.14	1.675
541.47	1.671
541.81	1.660
542.15	1.647
542.49	1.634
542.82	1.605
543.16	1.588
543.50	1.556
543.84	1.526
544.17	1.515
544.51	1.507
544.85	1.493
545.18	1.477
545.52	1.452
545.86	1.429
546.20	1.407
546.53	1.391
546.87	1.348
547.21	1.325
547.54	1.293
547.88	1.261
548.22	1.238
548.55	1.232
548.89	1.224
549.23	1.219
549.56	1.200
549.90	1.211
550.24	1.211
550.57	1.245
550.91	1.245
551.25	1.256
551.58	1.255
551.92	1.255
552.26	1.239
552.59	1.217
552.93	1.219
553.27	1.230
553.60	1.199
553.94	1.204
554.27	1.179
554.61	1.197
554.95	1.200
555.28	1.200
555.62	1.190
555.95	1.212
556.29	1.213
556.63	1.210
556.96	1.203
557.30	1.217
557.63	1.211
557.97	1.205
558.31	1.197
558.64	1.220
558.98	1.218
559.31	1.225
559.65	1.221
559.98	1.214
560.32	1.221
560.65	1.238
560.99	1.245
561.33	1.263
561.66	1.284
562.00	1.283
562.33	1.272
562.67	1.279
563.00	1.292
563.34	1.291
563.67	1.305
564.01	1.294
564.34	1.279
564.68	1.294
565.01	1.292
565.35	1.282
565.68	1.288
566.02	1.282
566.35	1.293
566.69	1.290
567.02	1.300
567.36	1.319
567.69	1.327
568.03	1.354
568.36	1.359
568.69	1.356
569.03	1.361
569.36	1.369
569.70	1.374
570.03	1.392
570.37	1.393
570.70	1.404
571.04	1.399
571.37	1.401
571.70	1.395
572.04	1.388
572.37	1.371
572.71	1.379
573.04	1.380
573.37	1.382
573.71	1.362
574.04	1.370
574.38	1.363
574.71	1.356
575.04	1.359
575.38	1.344
575.71	1.340
576.05	1.373
576.38	1.358
576.71	1.341
577.05	1.310
577.38	1.300
577.71	1.275
578.05	1.253
578.38	1.248
578.71	1.241
579.05	1.228
579.38	1.220
579.71	1.171
580.05	1.171
580.38	1.174
580.71	1.178
581.05	1.174
581.38	1.191
581.71	1.184
582.05	1.169
582.38	1.169
582.71	1.202
583.04	1.170
583.38	1.189
583.71	1.191
584.04	1.198
584.38	1.209
584.71	1.205
585.04	1.200
585.37	1.217
585.71	1.221
586.04	1.224
586.37	1.216
586.70	1.256
587.04	1.249
587.37	1.255
587.70	1.250
588.03	1.276
588.37	1.271
588.70	1.268
589.03	1.267
589.36	1.263
589.69	1.211
590.03	1.181
590.36	1.157
590.69	1.188
591.02	1.160
591.35	1.141
591.69	1.115
592.02	1.124
592.35	1.117
592.68	1.121
593.01	1.133
593.35	1.200
593.68	1.211
594.01	1.214
594.34	1.196
594.67	1.214
595.00	1.219
595.34	1.211
595.67	1.192
596.00	1.176
596.33	1.147
596.66	1.109
596.99	1.085
597.32	1.081
597.65	1.050
597.99	1.030
598.32	0.991
598.65	0.984
598.98	0.966
599.31	0.959
599.64	0.975
599.97	0.994
600.30	1.002
600.63	0.986
600.96	0.993
601.30	1.041
601.63	1.052
601.96	1.078
602.29	1.074
602.62	1.092
602.95	1.094
603.28	1.076
603.61	1.057
603.94	1.052
604.27	1.038
604.60	1.016
604.93	0.978
605.26	0.968
605.59	0.929
605.92	0.929
606.25	0.890
606.58	0.890
606.91	0.896
607.24	0.919
607.57	0.929
607.90	0.964
608.23	0.942
608.56	0.934
608.89	0.918
609.22	0.940
609.55	0.885
609.88	0.855
610.21	0.809
610.54	0.745
610.87	0.701
611.20	0.680
611.53	0.606
611.86	0.585
612.19	0.558
612.52	0.530
612.85	0.491
613.18	0.514
613.51	0.524
613.84	0.533
614.17	0.541
614.49	0.517
614.82	0.480
615.15	0.464
615.48	0.453
615.81	0.437
616.14	0.408
616.47	0.428
616.80	0.407
617.13	0.395
617.46	0.375
617.78	0.376
618.11	0.356
618.44	0.357
618.77	0.357
619.10	0.365
619.43	0.356
619.76	0.376
620.09	0.310
620.41	0.303
620.74	0.302
621.07	0.296
621.40	0.279
621.73	0.300
622.06	0.301
622.38	0.331
622.71	0.349
623.04	0.379
623.37	0.411
623.70	0.462
624.02	0.466
624.35	0.489
624.68	0.507
625.01	0.570
625.34	0.589
625.66	0.608
625.99	0.593
626.32	0.601
626.65	0.603
626.98	0.592
627.30	0.554
627.63	0.587
627.96	0.582
628.29	0.560
628.61	0.515
628.94	0.500
629.27	0.462
629.60	0.467
629.92	0.414
630.25	0.418
630.58	0.378
630.91	0.406
631.23	0.381
631.56	0.366
631.89	0.403
632.21	0.393
632.54	0.338
632.87	0.355
633.19	0.328
633.52	0.328
633.85	0.303
634.18	0.290
634.50	0.263
634.83	0.240
635.16	0.242
635.48	0.212
635.81	0.182
636.14	0.218
636.46	0.205
636.79	0.199
637.11	0.211
637.44	0.202
637.77	0.195
638.09	0.172
638.42	0.118
638.75	0.088
639.07	0.070
639.40	0.075
639.73	0.027
640.05	0.002
640.38	-0.017
640.70	-0.021
641.03	-0.087
641.36	-0.057
641.68	-0.050
642.01	-0.040
642.33	-0.033
642.66	-0.026
642.98	-0.050
643.31	-0.039
643.64	-0.047
643.96	-0.054
644.29	-0.065
644.61	0.001
644.94	-0.019
645.26	0.014
645.59	0.073
645.91	0.098
646.24	0.081
646.56	0.091
646.89	0.076
647.22	0.130
647.54	0.162
647.87	0.186
648.19	0.163
648.52	0.163
648.84	0.126
649.17	0.121
649.49	0.104
649.82	0.113
650.14	0.143
650.47	0.189
650.79	0.145
651.11	0.138
651.44	0.119
651.76	0.121
652.09	0.145
652.41	0.162
652.74	0.144
653.06	0.145
653.39	0.164
653.71	0.182
654.04	0.185
654.36	0.220
654.68	0.235
655.01	0.253
655.33	0.244
655.66	0.226
655.98	0.258
656.30	0.301
656.63	0.313
656.95	0.322
657.28	0.305
657.60	0.288
657.92	0.273
658.25	0.265
658.57	0.219
