OOIBase32 Version 2.0.0.6 Data File
++++++++++++++++++++++++++++++++++++
Date: 01-20-2012, 22:26:08
User: Valued Ocean Optics Customer
Spectrometer Serial Number: USB2E2917
Spectrometer Channel: Master
Integration Time (msec): 4
Spectra Averaged: 10
Boxcar Smoothing: 5
Correct for Electrical Dark: Enabled
Time Normalized: Disabled
Dual-beam Reference: Disabled
Reference Channel: Master
Temperature: Not acquired
Spectrometer Type: S2000
ADC Type: USB2000
Number of Pixels in File: 2048
Graph Title: 
>>>>>Begin Spectral Data<<<<<
180.30	0.000
180.67	0.000
181.03	175.157
181.40	44.448
181.77	66.083
182.14	-41.178
182.51	58.199
182.88	-60.157
183.25	36.992
183.62	50.434
183.99	49.898
184.36	110.739
184.73	148.588
185.10	37.356
185.46	197.878
185.83	-9.727
186.20	-345.256
186.57	38.570
186.94	219.525
187.31	-115.623
187.68	425.932
188.05	-18.062
188.42	-66.678
188.78	1.192
189.15	-14.663
189.52	-38.305
189.89	-58.221
190.26	-35.916
190.63	-6.676
191.00	-35.845
191.37	-63.697
191.73	-75.817
192.10	-106.185
192.47	-44.388
192.84	-70.395
193.21	-85.829
193.58	-82.886
193.94	-100.130
194.31	-56.330
194.68	-32.664
195.05	-19.768
195.42	-16.026
195.79	-23.410
196.15	-26.288
196.52	-50.811
196.89	-87.294
197.26	-70.388
197.63	-51.620
198.00	-28.866
198.36	-50.059
198.73	-53.482
199.10	-34.382
199.47	-24.791
199.84	-20.210
200.20	-13.127
200.57	-21.294
200.94	-22.855
201.31	-22.057
201.68	-37.335
202.04	-30.819
202.41	-31.712
202.78	-37.647
203.15	-53.229
203.51	-55.763
203.88	-23.246
204.25	-5.892
204.62	18.433
204.98	43.653
205.35	49.646
205.72	70.025
206.09	58.589
206.46	84.289
206.82	87.283
207.19	63.580
207.56	53.113
207.92	40.099
208.29	17.546
208.66	0.782
209.03	-14.568
209.39	-19.872
209.76	-31.863
210.13	-13.619
210.50	-21.038
210.86	-3.336
211.23	2.016
211.60	-2.907
211.96	-12.244
212.33	-6.479
212.70	-7.046
213.07	-1.943
213.43	-9.436
213.80	-9.478
214.17	-6.634
214.53	-3.189
214.90	-9.531
215.27	-1.262
215.63	-1.373
216.00	1.993
216.37	17.712
216.74	18.976
217.10	17.679
217.47	19.035
217.84	20.953
218.20	10.297
218.57	0.508
218.94	-5.272
219.30	-11.185
219.67	-7.593
220.04	-1.207
220.40	-11.655
220.77	-7.882
221.13	-7.332
221.50	-4.832
221.87	1.340
222.23	4.410
222.60	2.648
222.97	5.263
223.33	3.830
223.70	0.788
224.07	1.037
224.43	3.228
224.80	1.845
225.16	1.898
225.53	1.399
225.90	0.567
226.26	0.422
226.63	0.822
226.99	0.757
227.36	1.669
227.73	2.732
228.09	2.779
228.46	2.655
228.82	2.580
229.19	2.492
229.56	2.964
229.92	3.202
230.29	3.571
230.65	5.922
231.02	6.292
231.38	5.351
231.75	3.425
232.12	3.542
232.48	4.095
232.85	4.255
233.21	3.918
233.58	3.122
233.94	2.163
234.31	2.588
234.68	-1.689
235.04	-1.501
235.41	-0.774
235.77	1.351
236.14	0.473
236.50	-0.404
236.87	0.784
237.23	1.362
237.60	2.155
237.96	2.753
238.33	2.135
238.69	3.271
239.06	2.934
239.42	3.419
239.79	3.109
240.15	3.277
240.52	3.447
240.88	3.240
241.25	2.972
241.61	2.749
241.98	2.820
242.34	3.256
242.71	3.146
243.07	3.390
243.44	2.987
243.80	3.151
244.17	2.832
244.53	2.675
244.90	2.612
245.26	2.980
245.63	3.060
245.99	3.126
246.36	3.040
246.72	3.106
247.09	3.043
247.45	2.947
247.81	2.565
248.18	2.812
248.54	2.761
248.91	2.814
249.27	2.417
249.64	2.390
250.00	2.195
250.36	2.109
250.73	1.994
251.09	1.882
251.46	2.197
251.82	2.492
252.19	2.471
252.55	2.930
252.91	2.872
253.28	3.125
253.64	2.648
254.01	2.557
254.37	2.383
254.73	2.356
255.10	2.419
255.46	2.252
255.83	2.386
256.19	2.400
256.55	2.370
256.92	2.441
257.28	2.390
257.65	2.714
258.01	2.777
258.37	2.848
258.74	2.871
259.10	2.734
259.46	2.650
259.83	2.480
260.19	2.396
260.55	2.400
260.92	2.404
261.28	2.545
261.64	2.404
262.01	2.360
262.37	2.166
262.73	2.090
263.10	2.255
263.46	2.623
263.82	3.016
264.19	2.961
264.55	2.917
264.91	3.095
265.28	2.858
265.64	2.961
266.00	2.910
266.37	2.979
266.73	3.124
267.09	3.191
267.46	3.332
267.82	3.245
268.18	3.272
268.54	3.263
268.91	2.863
269.27	2.876
269.63	2.684
270.00	2.484
270.36	2.315
270.72	1.991
271.08	1.820
271.45	1.548
271.81	1.341
272.17	1.483
272.53	1.494
272.90	1.790
273.26	1.701
273.62	1.815
273.98	2.146
274.35	2.308
274.71	2.625
275.07	2.715
275.43	2.760
275.80	3.042
276.16	2.697
276.52	2.623
276.88	2.244
277.25	2.388
277.61	2.446
277.97	2.416
278.33	2.520
278.69	2.490
279.06	2.349
279.42	2.246
279.78	2.227
280.14	2.631
280.50	2.720
280.87	2.900
281.23	2.927
281.59	2.841
281.95	2.719
282.31	2.664
282.68	2.599
283.04	2.781
283.40	2.978
283.76	3.003
284.12	2.911
284.48	2.833
284.85	2.791
285.21	2.863
285.57	2.739
285.93	2.863
286.29	2.895
286.65	2.994
287.02	3.041
287.38	2.912
287.74	2.939
288.10	2.929
288.46	3.053
288.82	3.294
289.18	3.306
289.54	3.695
289.91	3.710
290.27	3.694
290.63	3.937
290.99	4.188
291.35	4.489
291.71	4.692
292.07	5.115
292.43	5.376
292.79	5.476
293.16	5.749
293.52	5.850
293.88	6.210
294.24	6.642
294.60	6.814
294.96	6.883
295.32	7.034
295.68	7.190
296.04	7.221
296.40	7.355
296.76	7.540
297.12	7.696
297.49	7.920
297.85	7.997
298.21	8.030
298.57	8.175
298.93	8.429
299.29	8.855
299.65	9.004
300.01	9.316
300.37	9.589
300.73	9.865
301.09	10.090
301.45	10.359
301.81	10.661
302.17	10.987
302.53	11.167
302.89	11.225
303.25	11.121
303.61	11.242
303.97	11.278
304.33	11.332
304.69	11.572
305.05	11.508
305.41	11.337
305.77	11.365
306.13	11.418
306.49	11.459
306.85	11.579
307.21	11.738
307.57	11.875
307.93	11.951
308.29	12.049
308.65	12.028
309.01	12.156
309.37	12.439
309.73	12.455
310.09	12.480
310.45	12.546
310.81	12.628
311.17	12.559
311.53	12.602
311.89	12.668
312.25	12.679
312.61	12.617
312.96	12.687
313.32	12.578
313.68	12.571
314.04	12.667
314.40	12.731
314.76	12.746
315.12	12.791
315.48	12.780
315.84	12.810
316.20	12.871
316.56	12.818
316.92	12.714
317.27	12.733
317.63	12.709
317.99	12.521
318.35	12.447
318.71	12.470
319.07	12.607
319.43	12.694
319.79	12.582
320.15	12.491
320.50	12.552
320.86	12.549
321.22	12.523
321.58	12.472
321.94	12.488
322.30	12.306
322.66	12.123
323.01	12.059
323.37	11.934
323.73	11.874
324.09	11.764
324.45	11.691
324.81	11.704
325.17	11.590
325.52	11.605
325.88	11.591
326.24	11.644
326.60	11.628
326.96	11.504
327.31	11.464
327.67	11.566
328.03	11.636
328.39	11.688
328.75	11.709
329.11	11.818
329.46	11.711
329.82	11.681
330.18	11.633
330.54	11.642
330.90	11.585
331.25	11.482
331.61	11.345
331.97	11.253
332.33	11.122
332.68	11.017
333.04	10.933
333.40	10.964
333.76	10.993
334.11	11.016
334.47	11.033
334.83	11.070
335.19	11.067
335.54	10.997
335.90	11.056
336.26	10.990
336.62	10.951
336.97	10.823
337.33	10.765
337.69	10.640
338.05	10.591
338.40	10.502
338.76	10.420
339.12	10.410
339.48	10.449
339.83	10.341
340.19	10.410
340.55	10.408
340.90	10.415
341.26	10.387
341.62	10.409
341.97	10.355
342.33	10.271
342.69	10.332
343.04	10.237
343.40	10.195
343.76	10.192
344.12	10.102
344.47	10.062
344.83	10.025
345.19	10.031
345.54	9.988
345.90	10.028
346.26	10.064
346.61	9.925
346.97	10.005
347.32	10.001
347.68	10.004
348.04	10.068
348.39	10.071
348.75	10.011
349.11	9.878
349.46	9.802
349.82	9.743
350.18	9.667
350.53	9.657
350.89	9.580
351.24	9.480
351.60	9.426
351.96	9.260
352.31	9.192
352.67	9.231
353.02	9.235
353.38	9.219
353.74	9.184
354.09	9.196
354.45	9.247
354.80	9.197
355.16	9.221
355.52	9.098
355.87	9.129
356.23	9.091
356.58	9.046
356.94	9.089
357.29	9.100
357.65	9.091
358.00	9.031
358.36	8.922
358.72	8.875
359.07	8.833
359.43	8.808
359.78	8.786
360.14	8.729
360.49	8.665
360.85	8.630
361.20	8.513
361.56	8.454
361.91	8.463
362.27	8.466
362.62	8.457
362.98	8.399
363.33	8.422
363.69	8.404
364.04	8.366
364.40	8.335
364.75	8.311
365.11	8.344
365.46	8.303
365.82	8.215
366.17	8.149
366.53	8.105
366.88	8.098
367.24	8.006
367.59	7.909
367.95	7.922
368.30	7.920
368.66	7.839
369.01	7.807
369.37	7.816
369.72	7.852
370.08	7.895
370.43	7.903
370.78	7.880
371.14	7.960
371.49	7.925
371.85	7.939
372.20	7.946
372.56	7.957
372.91	7.879
373.26	7.831
373.62	7.820
373.97	7.701
374.33	7.658
374.68	7.643
375.03	7.551
375.39	7.570
375.74	7.514
376.10	7.455
376.45	7.400
376.80	7.405
377.16	7.372
377.51	7.312
377.87	7.355
378.22	7.354
378.57	7.368
378.93	7.377
379.28	7.421
379.63	7.371
379.99	7.369
380.34	7.367
380.70	7.399
381.05	7.378
381.40	7.366
381.76	7.362
382.11	7.351
382.46	7.302
382.82	7.280
383.17	7.247
383.52	7.247
383.88	7.185
384.23	7.149
384.58	7.145
384.94	7.142
385.29	7.113
385.64	7.072
385.99	7.040
386.35	6.977
386.70	6.916
387.05	6.857
387.41	6.841
387.76	6.869
388.11	6.873
388.47	6.839
388.82	6.829
389.17	6.839
389.52	6.860
389.88	6.876
390.23	6.919
390.58	6.969
390.93	7.006
391.29	6.980
391.64	6.977
391.99	6.975
392.34	6.959
392.70	6.942
393.05	6.890
393.40	6.825
393.75	6.751
394.11	6.667
394.46	6.618
394.81	6.545
395.16	6.493
395.52	6.378
395.87	6.314
396.22	6.193
396.57	6.152
396.92	6.083
397.28	6.020
397.63	5.995
397.98	5.941
398.33	5.873
398.68	5.836
399.04	5.789
399.39	5.748
399.74	5.653
400.09	5.652
400.44	5.583
400.80	5.591
401.15	5.584
401.50	5.555
401.85	5.559
402.20	5.578
402.55	5.534
402.90	5.504
403.26	5.518
403.61	5.562
403.96	5.562
404.31	5.561
404.66	5.544
405.01	5.486
405.36	5.426
405.72	5.405
406.07	5.335
406.42	5.329
406.77	5.357
407.12	5.324
407.47	5.269
407.82	5.226
408.17	5.196
408.53	5.165
408.88	5.156
409.23	5.168
409.58	5.110
409.93	5.085
410.28	5.044
410.63	4.991
410.98	4.977
411.33	4.941
411.68	4.934
412.03	4.909
412.38	4.895
412.73	4.933
413.09	4.937
413.44	4.954
413.79	5.003
414.14	5.033
414.49	5.048
414.84	5.073
415.19	5.119
415.54	5.172
415.89	5.238
416.24	5.268
416.59	5.265
416.94	5.285
417.29	5.338
417.64	5.343
417.99	5.349
418.34	5.364
418.69	5.388
419.04	5.395
419.39	5.393
419.74	5.385
420.09	5.400
420.44	5.414
420.79	5.426
421.14	5.409
421.49	5.402
421.84	5.389
422.19	5.373
422.54	5.359
422.89	5.359
423.24	5.337
423.59	5.294
423.94	5.255
424.29	5.218
424.64	5.177
424.99	5.139
425.34	5.097
425.68	5.057
426.03	5.042
426.38	4.982
426.73	4.920
427.08	4.874
427.43	4.872
427.78	4.859
428.13	4.846
428.48	4.842
428.83	4.834
429.18	4.844
429.53	4.858
429.87	4.840
430.22	4.847
430.57	4.849
430.92	4.847
431.27	4.861
431.62	4.860
431.97	4.847
432.32	4.824
432.67	4.796
433.01	4.771
433.36	4.748
433.71	4.735
434.06	4.707
434.41	4.685
434.76	4.688
435.11	4.670
435.45	4.657
435.80	4.677
436.15	4.685
436.50	4.694
436.85	4.706
437.20	4.732
437.54	4.740
437.89	4.753
438.24	4.770
438.59	4.766
438.94	4.753
439.29	4.751
439.63	4.721
439.98	4.701
440.33	4.714
440.68	4.710
441.03	4.697
441.37	4.695
441.72	4.710
442.07	4.726
442.42	4.729
442.76	4.754
443.11	4.768
443.46	4.787
443.81	4.819
444.16	4.823
444.50	4.830
444.85	4.817
445.20	4.812
445.55	4.766
445.89	4.719
446.24	4.682
446.59	4.635
446.94	4.577
447.28	4.518
447.63	4.441
447.98	4.381
448.32	4.317
448.67	4.271
449.02	4.229
449.37	4.200
449.71	4.184
450.06	4.157
450.41	4.150
450.75	4.156
451.10	4.167
451.45	4.157
451.79	4.141
452.14	4.118
452.49	4.091
452.84	4.094
453.18	4.107
453.53	4.097
453.88	4.108
454.22	4.101
454.57	4.111
454.92	4.134
455.26	4.149
455.61	4.194
455.95	4.233
456.30	4.295
456.65	4.300
456.99	4.316
457.34	4.350
457.69	4.378
458.03	4.387
458.38	4.390
458.73	4.376
459.07	4.375
459.42	4.337
459.76	4.302
460.11	4.243
460.46	4.204
460.80	4.176
461.15	4.097
461.49	4.036
461.84	3.992
462.19	3.945
462.53	3.914
462.88	3.869
463.22	3.856
463.57	3.849
463.91	3.843
464.26	3.851
464.61	3.840
464.95	3.860
465.30	3.855
465.64	3.858
465.99	3.840
466.33	3.829
466.68	3.829
467.02	3.811
467.37	3.804
467.71	3.781
468.06	3.760
468.41	3.735
468.75	3.721
469.10	3.693
469.44	3.666
469.79	3.646
470.13	3.614
470.48	3.589
470.82	3.577
471.17	3.555
471.51	3.570
471.86	3.543
472.20	3.513
472.55	3.502
472.89	3.492
473.23	3.461
473.58	3.438
473.92	3.438
474.27	3.432
474.61	3.420
474.96	3.411
475.30	3.382
475.65	3.397
475.99	3.390
476.34	3.372
476.68	3.370
477.02	3.367
477.37	3.388
477.71	3.394
478.06	3.438
478.40	3.506
478.75	3.617
479.09	3.738
479.43	3.864
479.78	4.009
480.12	4.154
480.47	4.296
480.81	4.440
481.15	4.570
481.50	4.700
481.84	4.821
482.19	4.959
482.53	5.076
482.87	5.156
483.22	5.169
483.56	5.138
483.90	5.060
484.25	4.953
484.59	4.824
484.94	4.719
485.28	4.621
485.62	4.506
485.97	4.360
486.31	4.215
486.65	4.106
487.00	4.044
487.34	4.014
487.68	4.014
488.03	4.029
488.37	4.053
488.71	4.038
489.06	4.014
489.40	3.985
489.74	3.962
490.09	3.931
490.43	3.890
490.77	3.852
491.11	3.803
491.46	3.744
491.80	3.681
492.14	3.620
492.49	3.562
492.83	3.479
493.17	3.399
493.51	3.306
493.86	3.222
494.20	3.157
494.54	3.124
494.88	3.112
495.23	3.109
495.57	3.116
495.91	3.111
496.25	3.099
496.60	3.101
496.94	3.109
497.28	3.108
497.62	3.093
497.97	3.058
498.31	3.012
498.65	2.965
498.99	2.951
499.33	2.926
499.68	2.909
500.02	2.909
500.36	2.876
500.70	2.859
501.04	2.853
501.39	2.846
501.73	2.857
502.07	2.864
502.41	2.887
502.75	2.865
503.09	2.864
503.44	2.882
503.78	2.878
504.12	2.888
504.46	2.884
504.80	2.902
505.14	2.936
505.49	2.967
505.83	2.978
506.17	2.984
506.51	3.018
506.85	3.028
507.19	3.026
507.53	3.027
507.87	3.049
508.22	3.049
508.56	3.030
508.90	3.028
509.24	3.008
509.58	3.007
509.92	2.995
510.26	2.975
510.60	2.952
510.94	2.919
511.28	2.901
511.63	2.884
511.97	2.875
512.31	2.870
512.65	2.837
512.99	2.842
513.33	2.861
513.67	2.903
514.01	2.937
514.35	2.984
514.69	3.037
515.03	3.079
515.37	3.104
515.71	3.146
516.05	3.192
516.39	3.234
516.73	3.235
517.07	3.234
517.41	3.212
517.75	3.203
518.09	3.188
518.43	3.165
518.77	3.147
519.11	3.123
519.45	3.085
519.79	3.052
520.13	3.022
520.47	3.019
520.81	3.007
521.15	3.014
521.49	2.999
521.83	3.001
522.17	3.017
522.51	3.050
522.85	3.104
523.19	3.183
523.53	3.258
523.87	3.360
524.21	3.459
524.55	3.553
524.89	3.623
525.23	3.691
525.57	3.752
525.91	3.814
526.25	3.853
526.58	3.888
526.92	3.908
527.26	3.928
527.60	3.925
527.94	3.909
528.28	3.885
528.62	3.868
528.96	3.843
529.30	3.812
529.64	3.776
529.97	3.749
530.31	3.707
530.65	3.669
530.99	3.636
531.33	3.611
531.67	3.598
532.01	3.582
532.35	3.564
532.68	3.540
533.02	3.528
533.36	3.499
533.70	3.466
534.04	3.449
534.38	3.427
534.71	3.390
535.05	3.351
535.39	3.309
535.73	3.277
536.07	3.252
536.41	3.263
536.74	3.271
537.08	3.295
537.42	3.328
537.76	3.353
538.10	3.391
538.43	3.425
538.77	3.455
539.11	3.495
539.45	3.520
539.79	3.543
540.12	3.559
540.46	3.572
540.80	3.565
541.14	3.562
541.47	3.553
541.81	3.543
542.15	3.517
542.49	3.489
542.82	3.433
543.16	3.398
543.50	3.372
543.84	3.336
544.17	3.294
544.51	3.263
544.85	3.214
545.18	3.182
545.52	3.123
545.86	3.093
546.20	3.058
546.53	3.043
546.87	3.020
547.21	2.954
547.54	2.906
547.88	2.872
548.22	2.854
548.55	2.832
548.89	2.799
549.23	2.791
549.56	2.786
549.90	2.789
550.24	2.781
550.57	2.766
550.91	2.781
551.25	2.780
551.58	2.768
551.92	2.753
552.26	2.759
552.59	2.734
552.93	2.721
553.27	2.701
553.60	2.677
553.94	2.687
554.27	2.676
554.61	2.660
554.95	2.651
555.28	2.650
555.62	2.660
555.95	2.634
556.29	2.661
556.63	2.671
556.96	2.671
557.30	2.675
557.63	2.656
557.97	2.670
558.31	2.676
558.64	2.684
558.98	2.685
559.31	2.681
559.65	2.698
559.98	2.709
560.32	2.709
560.65	2.718
560.99	2.724
561.33	2.743
561.66	2.772
562.00	2.796
562.33	2.800
562.67	2.814
563.00	2.817
563.34	2.833
563.67	2.836
564.01	2.863
564.34	2.887
564.68	2.922
565.01	2.934
565.35	2.930
565.68	2.928
566.02	2.925
566.35	2.929
566.69	2.963
567.02	2.980
567.36	2.999
567.69	3.003
568.03	2.995
568.36	2.989
568.69	2.989
569.03	2.982
569.36	2.968
569.70	2.979
570.03	2.999
570.37	2.984
570.70	2.989
571.04	2.983
571.37	2.984
571.70	3.003
572.04	2.996
572.37	2.999
572.71	2.988
573.04	3.019
573.37	3.012
573.71	2.992
574.04	3.004
574.38	2.977
574.71	2.967
575.04	2.955
575.38	2.938
575.71	2.936
576.05	2.917
576.38	2.906
576.71	2.873
577.05	2.856
577.38	2.823
577.71	2.769
578.05	2.760
578.38	2.725
578.71	2.685
579.05	2.655
579.38	2.642
579.71	2.612
580.05	2.612
580.38	2.599
580.71	2.596
581.05	2.610
581.38	2.626
581.71	2.624
582.05	2.638
582.38	2.668
582.71	2.675
583.04	2.690
583.38	2.720
583.71	2.760
584.04	2.791
584.38	2.827
584.71	2.848
585.04	2.846
585.37	2.877
585.71	2.892
586.04	2.893
586.37	2.924
586.70	2.911
587.04	2.912
587.37	2.909
587.70	2.887
588.03	2.858
588.37	2.843
588.70	2.856
589.03	2.859
589.36	2.867
589.69	2.867
590.03	2.864
590.36	2.879
590.69	2.875
591.02	2.850
591.35	2.865
591.69	2.883
592.02	2.898
592.35	2.913
592.68	2.926
593.01	2.934
593.35	2.963
593.68	2.983
594.01	2.979
594.34	2.994
594.67	3.010
595.00	3.013
595.34	3.043
595.67	3.052
596.00	3.029
596.33	3.020
596.66	3.017
596.99	2.978
597.32	2.951
597.65	2.953
597.99	2.952
598.32	2.944
598.65	2.932
598.98	2.901
599.31	2.869
599.64	2.867
599.97	2.852
600.30	2.864
600.63	2.885
600.96	2.879
601.30	2.891
601.63	2.902
601.96	2.893
602.29	2.921
602.62	2.937
602.95	2.959
603.28	2.991
603.61	2.991
603.94	2.986
604.27	2.960
604.60	2.983
604.93	2.968
605.26	2.957
605.59	2.981
605.92	2.970
606.25	2.948
606.58	2.945
606.91	2.941
607.24	2.954
607.57	2.962
607.90	2.976
608.23	2.953
608.56	2.958
608.89	2.952
609.22	2.932
609.55	2.902
609.88	2.890
610.21	2.873
610.54	2.848
610.87	2.817
611.20	2.770
611.53	2.748
611.86	2.719
612.19	2.693
612.52	2.688
612.85	2.675
613.18	2.688
613.51	2.697
613.84	2.655
614.17	2.632
614.49	2.667
614.82	2.699
615.15	2.689
615.48	2.703
615.81	2.692
616.14	2.653
616.47	2.619
616.80	2.596
617.13	2.585
617.46	2.618
617.78	2.632
618.11	2.599
618.44	2.554
618.77	2.545
619.10	2.539
619.43	2.546
619.76	2.553
620.09	2.582
620.41	2.566
620.74	2.570
621.07	2.562
621.40	2.558
621.73	2.533
622.06	2.540
622.38	2.610
622.71	2.624
623.04	2.616
623.37	2.674
623.70	2.672
624.02	2.722
624.35	2.689
624.68	2.695
625.01	2.705
625.34	2.710
625.66	2.714
625.99	2.679
626.32	2.662
626.65	2.671
626.98	2.628
627.30	2.617
627.63	2.583
627.96	2.603
628.29	2.590
628.61	2.597
628.94	2.613
629.27	2.609
629.60	2.601
629.92	2.591
630.25	2.562
630.58	2.541
630.91	2.542
631.23	2.507
631.56	2.511
631.89	2.529
632.21	2.505
632.54	2.493
632.87	2.477
633.19	2.458
633.52	2.449
633.85	2.473
634.18	2.459
634.50	2.444
634.83	2.426
635.16	2.383
635.48	2.359
635.81	2.329
636.14	2.269
636.46	2.257
636.79	2.243
637.11	2.222
637.44	2.180
637.77	2.166
638.09	2.116
638.42	2.113
638.75	2.113
639.07	2.095
639.40	2.061
639.73	2.070
640.05	2.048
640.38	1.997
640.70	1.972
641.03	1.940
641.36	1.959
641.68	1.981
642.01	1.997
642.33	1.976
642.66	1.948
642.98	1.942
643.31	1.956
643.64	1.955
643.96	1.993
644.29	2.017
644.61	2.053
644.94	2.063
645.26	2.091
645.59	2.088
645.91	2.116
646.24	2.110
646.56	2.131
646.89	2.100
647.22	2.128
647.54	2.167
647.87	2.153
648.19	2.167
648.52	2.171
648.84	2.118
649.17	2.107
649.49	2.076
649.82	2.066
650.14	2.007
650.47	1.980
650.79	1.936
651.11	1.865
651.44	1.893
651.76	1.879
652.09	1.813
652.41	1.811
652.74	1.777
653.06	1.756
653.39	1.734
653.71	1.776
654.04	1.811
654.36	1.789
654.68	1.795
655.01	1.744
655.33	1.726
655.66	1.698
655.98	1.689
656.30	1.650
