OOIBase32 Version 2.0.0.6 Data File
++++++++++++++++++++++++++++++++++++
Date: 01-20-2012, 22:25:40
User: Valued Ocean Optics Customer
Spectrometer Serial Number: USB2E2917
Spectrometer Channel: Master
Integration Time (msec): 4
Spectra Averaged: 10
Boxcar Smoothing: 5
Correct for Electrical Dark: Enabled
Time Normalized: Disabled
Dual-beam Reference: Disabled
Reference Channel: Master
Temperature: Not acquired
Spectrometer Type: S2000
ADC Type: USB2000
Number of Pixels in File: 2048
Graph Title: 
>>>>>Begin Spectral Data<<<<<
180.30	0.000
180.67	0.000
181.03	-155.112
181.40	35.866
181.77	-0.930
182.14	333.921
182.51	104.193
182.88	153.395
183.25	84.726
183.62	68.647
183.99	-13.639
184.36	151.300
184.73	142.488
185.10	142.080
185.46	-132.390
185.83	-73.081
186.20	631.868
186.57	47.118
186.94	354.134
187.31	-23.618
187.68	-4442.281
188.05	-191.562
188.42	-35.015
188.78	30.051
189.15	14.402
189.52	5.332
189.89	-18.053
190.26	7.962
190.63	26.222
191.00	27.009
191.37	17.738
191.73	32.057
192.10	78.857
192.47	67.773
192.84	55.691
193.21	61.017
193.58	59.837
193.94	63.287
194.31	58.965
194.68	55.551
195.05	38.075
195.42	36.504
195.79	38.784
196.15	26.590
196.52	28.865
196.89	1.673
197.26	6.587
197.63	21.072
198.00	18.004
198.36	-0.460
198.73	3.595
199.10	25.701
199.47	38.049
199.84	41.426
200.20	52.792
200.57	56.525
200.94	60.455
201.31	41.786
201.68	38.481
202.04	38.769
202.41	46.196
202.78	44.692
203.15	46.133
203.51	44.819
203.88	32.488
204.25	24.533
204.62	17.617
204.98	21.066
205.35	29.008
205.72	24.756
206.09	21.933
206.46	18.643
206.82	2.888
207.19	4.495
207.56	-3.156
207.92	3.363
208.29	9.550
208.66	4.571
209.03	5.337
209.39	29.148
209.76	37.784
210.13	45.288
210.50	35.089
210.86	38.447
211.23	36.380
211.60	26.743
211.96	23.472
212.33	18.171
212.70	18.727
213.07	29.392
213.43	6.619
213.80	12.855
214.17	11.872
214.53	16.000
214.90	17.587
215.27	28.317
215.63	45.841
216.00	49.279
216.37	53.893
216.74	46.282
217.10	39.261
217.47	30.890
217.84	20.353
218.20	19.613
218.57	21.373
218.94	21.696
219.30	15.721
219.67	13.210
220.04	11.948
220.40	2.883
220.77	8.518
221.13	10.113
221.50	22.449
221.87	25.119
222.23	24.539
222.60	25.184
222.97	26.446
223.33	26.344
223.70	23.777
224.07	20.881
224.43	23.891
224.80	21.439
225.16	20.804
225.53	18.879
225.90	17.887
226.26	18.879
226.63	18.005
226.99	16.653
227.36	15.619
227.73	15.676
228.09	16.363
228.46	15.681
228.82	15.315
229.19	14.693
229.56	14.847
229.92	14.684
230.29	13.701
230.65	14.697
231.02	15.359
231.38	16.154
231.75	16.037
232.12	16.606
232.48	16.757
232.85	17.419
233.21	17.835
233.58	16.549
233.94	17.094
234.31	16.984
234.68	15.857
235.04	16.099
235.41	15.058
235.77	15.246
236.14	14.480
236.50	13.724
236.87	13.696
237.23	13.582
237.60	14.548
237.96	14.554
238.33	14.755
238.69	14.352
239.06	13.847
239.42	14.191
239.79	14.131
240.15	13.845
240.52	13.705
240.88	13.817
241.25	13.798
241.61	13.503
241.98	13.730
242.34	13.522
242.71	13.563
243.07	13.505
243.44	13.192
243.80	13.238
244.17	13.308
244.53	13.321
244.90	13.122
245.26	12.992
245.63	12.991
245.99	12.731
246.36	12.727
246.72	12.587
247.09	12.444
247.45	12.185
247.81	11.803
248.18	11.683
248.54	11.436
248.91	11.418
249.27	11.537
249.64	11.620
250.00	11.470
250.36	11.446
250.73	11.518
251.09	11.578
251.46	12.157
251.82	12.339
252.19	12.465
252.55	12.713
252.91	12.637
253.28	12.165
253.64	11.727
254.01	11.604
254.37	11.504
254.73	11.605
255.10	11.667
255.46	11.713
255.83	11.671
256.19	11.580
256.55	11.454
256.92	11.631
257.28	11.682
257.65	11.627
258.01	11.526
258.37	11.382
258.74	11.347
259.10	11.266
259.46	11.073
259.83	10.960
260.19	10.860
260.55	10.957
260.92	10.814
261.28	10.929
261.64	10.883
262.01	10.919
262.37	11.063
262.73	10.673
263.10	10.452
263.46	10.571
263.82	10.980
264.19	10.793
264.55	10.783
264.91	10.848
265.28	10.594
265.64	10.706
266.00	10.799
266.37	10.675
266.73	11.037
267.09	11.212
267.46	11.269
267.82	11.198
268.18	11.353
268.54	11.171
268.91	10.906
269.27	10.722
269.63	10.607
270.00	10.463
270.36	10.345
270.72	10.072
271.08	9.797
271.45	9.540
271.81	9.309
272.17	9.421
272.53	9.457
272.90	9.511
273.26	9.536
273.62	9.557
273.98	9.728
274.35	9.977
274.71	10.210
275.07	10.527
275.43	10.466
275.80	10.531
276.16	10.166
276.52	10.120
276.88	9.728
277.25	9.715
277.61	9.788
277.97	9.541
278.33	9.472
278.69	9.467
279.06	9.297
279.42	9.324
279.78	9.277
280.14	9.461
280.50	9.456
280.87	9.736
281.23	9.927
281.59	9.817
281.95	9.805
282.31	9.649
282.68	9.491
283.04	9.501
283.40	9.660
283.76	9.612
284.12	9.591
284.48	9.493
284.85	9.380
285.21	9.309
285.57	9.161
285.93	9.090
286.29	9.106
286.65	9.181
287.02	9.103
287.38	8.901
287.74	8.879
288.10	8.769
288.46	8.783
288.82	8.919
289.18	8.822
289.54	9.007
289.91	9.057
290.27	8.997
290.63	9.108
290.99	9.288
291.35	9.484
291.71	9.620
292.07	9.839
292.43	10.047
292.79	9.909
293.16	10.085
293.52	10.109
293.88	10.305
294.24	10.544
294.60	10.515
294.96	10.575
295.32	10.689
295.68	10.761
296.04	10.729
296.40	10.665
296.76	10.865
297.12	10.951
297.49	11.041
297.85	11.142
298.21	11.109
298.57	11.427
298.93	11.651
299.29	11.947
299.65	12.092
300.01	12.293
300.37	12.675
300.73	12.951
301.09	13.051
301.45	13.374
301.81	13.580
302.17	13.949
302.53	13.894
302.89	13.944
303.25	13.907
303.61	13.974
303.97	14.253
304.33	14.271
304.69	14.370
305.05	14.422
305.41	14.269
305.77	14.281
306.13	14.242
306.49	14.277
306.85	14.390
307.21	14.562
307.57	14.781
307.93	14.642
308.29	14.660
308.65	14.717
309.01	14.827
309.37	14.954
309.73	14.905
310.09	14.880
310.45	14.894
310.81	14.925
311.17	14.736
311.53	14.702
311.89	14.754
312.25	14.784
312.61	14.655
312.96	14.635
313.32	14.617
313.68	14.722
314.04	14.698
314.40	14.798
314.76	14.678
315.12	14.745
315.48	14.591
315.84	14.605
316.20	14.546
316.56	14.544
316.92	14.516
317.27	14.468
317.63	14.415
317.99	14.445
318.35	14.441
318.71	14.440
319.07	14.563
319.43	14.615
319.79	14.572
320.15	14.525
320.50	14.507
320.86	14.479
321.22	14.488
321.58	14.384
321.94	14.294
322.30	14.144
322.66	14.146
323.01	14.040
323.37	13.999
323.73	13.897
324.09	13.833
324.45	13.812
324.81	13.744
325.17	13.636
325.52	13.578
325.88	13.541
326.24	13.577
326.60	13.530
326.96	13.398
327.31	13.332
327.67	13.365
328.03	13.431
328.39	13.514
328.75	13.501
329.11	13.606
329.46	13.714
329.82	13.646
330.18	13.617
330.54	13.569
330.90	13.615
331.25	13.516
331.61	13.413
331.97	13.332
332.33	13.124
332.68	13.028
333.04	12.839
333.40	12.733
333.76	12.842
334.11	12.746
334.47	12.741
334.83	12.695
335.19	12.771
335.54	12.802
335.90	12.830
336.26	12.862
336.62	12.906
336.97	12.960
337.33	12.971
337.69	12.930
338.05	12.908
338.40	12.853
338.76	12.800
339.12	12.723
339.48	12.650
339.83	12.495
340.19	12.418
340.55	12.426
340.90	12.346
341.26	12.288
341.62	12.270
341.97	12.232
342.33	12.197
342.69	12.172
343.04	12.123
343.40	12.087
343.76	12.139
344.12	12.148
344.47	12.087
344.83	12.110
345.19	12.109
345.54	12.023
345.90	12.036
346.26	12.046
346.61	11.951
346.97	11.972
347.32	12.009
347.68	11.968
348.04	11.984
348.39	11.996
348.75	11.971
349.11	11.899
349.46	11.845
349.82	11.809
350.18	11.708
350.53	11.762
350.89	11.694
351.24	11.658
351.60	11.654
351.96	11.559
352.31	11.516
352.67	11.463
353.02	11.401
353.38	11.321
353.74	11.288
354.09	11.295
354.45	11.279
354.80	11.230
355.16	11.239
355.52	11.181
355.87	11.185
356.23	11.117
356.58	11.066
356.94	11.138
357.29	11.185
357.65	11.112
358.00	11.076
358.36	10.970
358.72	10.970
359.07	10.864
359.43	10.776
359.78	10.718
360.14	10.650
360.49	10.583
360.85	10.463
361.20	10.421
361.56	10.426
361.91	10.390
362.27	10.372
362.62	10.358
362.98	10.364
363.33	10.403
363.69	10.412
364.04	10.430
364.40	10.393
364.75	10.413
365.11	10.427
365.46	10.371
365.82	10.417
366.17	10.484
366.53	10.430
366.88	10.397
367.24	10.326
367.59	10.273
367.95	10.251
368.30	10.316
368.66	10.285
369.01	10.209
369.37	10.237
369.72	10.175
370.08	10.166
370.43	10.163
370.78	10.094
371.14	10.126
371.49	10.141
371.85	10.121
372.20	10.048
372.56	10.061
372.91	10.020
373.26	9.992
373.62	9.971
373.97	9.866
374.33	9.827
374.68	9.807
375.03	9.783
375.39	9.713
375.74	9.698
376.10	9.705
376.45	9.618
376.80	9.644
377.16	9.636
377.51	9.597
377.87	9.650
378.22	9.683
378.57	9.697
378.93	9.644
379.28	9.701
379.63	9.710
379.99	9.706
380.34	9.723
380.70	9.719
381.05	9.693
381.40	9.683
381.76	9.640
382.11	9.607
382.46	9.631
382.82	9.638
383.17	9.612
383.52	9.613
383.88	9.631
384.23	9.641
384.58	9.634
384.94	9.627
385.29	9.625
385.64	9.622
385.99	9.627
386.35	9.558
386.70	9.526
387.05	9.461
387.41	9.394
387.76	9.363
388.11	9.355
388.47	9.373
388.82	9.342
389.17	9.328
389.52	9.298
389.88	9.297
390.23	9.359
390.58	9.368
390.93	9.383
391.29	9.363
391.64	9.364
391.99	9.339
392.34	9.297
392.70	9.290
393.05	9.252
393.40	9.217
393.75	9.145
394.11	9.089
394.46	9.059
394.81	9.026
395.16	9.016
395.52	8.922
395.87	8.847
396.22	8.764
396.57	8.718
396.92	8.668
397.28	8.646
397.63	8.623
397.98	8.559
398.33	8.516
398.68	8.490
399.04	8.445
399.39	8.423
399.74	8.413
400.09	8.414
400.44	8.385
400.80	8.380
401.15	8.366
401.50	8.351
401.85	8.358
402.20	8.344
402.55	8.305
402.90	8.301
403.26	8.288
403.61	8.301
403.96	8.275
404.31	8.248
404.66	8.202
405.01	8.165
405.36	8.146
405.72	8.093
406.07	8.042
406.42	8.049
406.77	8.062
407.12	8.030
407.47	7.964
407.82	7.946
408.17	7.941
408.53	7.957
408.88	7.948
409.23	7.924
409.58	7.903
409.93	7.917
410.28	7.886
410.63	7.797
410.98	7.796
411.33	7.777
411.68	7.744
412.03	7.732
412.38	7.719
412.73	7.708
413.09	7.712
413.44	7.742
413.79	7.792
414.14	7.815
414.49	7.844
414.84	7.893
415.19	7.949
415.54	8.025
415.89	8.079
416.24	8.109
416.59	8.139
416.94	8.168
417.29	8.191
417.64	8.187
417.99	8.199
418.34	8.230
418.69	8.230
419.04	8.241
419.39	8.250
419.74	8.255
420.09	8.262
420.44	8.278
420.79	8.278
421.14	8.259
421.49	8.265
421.84	8.248
422.19	8.226
422.54	8.226
422.89	8.205
423.24	8.150
423.59	8.099
423.94	8.059
424.29	8.005
424.64	7.955
424.99	7.927
425.34	7.888
425.68	7.860
426.03	7.847
426.38	7.793
426.73	7.761
427.08	7.751
427.43	7.747
427.78	7.770
428.13	7.781
428.48	7.809
428.83	7.814
429.18	7.803
429.53	7.834
429.87	7.824
430.22	7.817
430.57	7.829
430.92	7.831
431.27	7.851
431.62	7.833
431.97	7.809
432.32	7.790
432.67	7.768
433.01	7.743
433.36	7.691
433.71	7.671
434.06	7.656
434.41	7.629
434.76	7.633
435.11	7.614
435.45	7.620
435.80	7.662
436.15	7.670
436.50	7.694
436.85	7.717
437.20	7.749
437.54	7.774
437.89	7.791
438.24	7.810
438.59	7.798
438.94	7.793
439.29	7.778
439.63	7.739
439.98	7.720
440.33	7.724
440.68	7.728
441.03	7.724
441.37	7.706
441.72	7.728
442.07	7.747
442.42	7.752
442.76	7.764
443.11	7.784
443.46	7.818
443.81	7.834
444.16	7.838
444.50	7.831
444.85	7.825
445.20	7.822
445.55	7.759
445.89	7.704
446.24	7.677
446.59	7.645
446.94	7.584
447.28	7.506
447.63	7.447
447.98	7.381
448.32	7.330
448.67	7.264
449.02	7.217
449.37	7.219
449.71	7.220
450.06	7.211
450.41	7.213
450.75	7.232
451.10	7.255
451.45	7.242
451.79	7.254
452.14	7.239
452.49	7.226
452.84	7.243
453.18	7.232
453.53	7.216
453.88	7.211
454.22	7.203
454.57	7.220
454.92	7.248
455.26	7.276
455.61	7.313
455.95	7.375
456.30	7.433
456.65	7.463
456.99	7.489
457.34	7.513
457.69	7.531
458.03	7.535
458.38	7.523
458.73	7.497
459.07	7.478
459.42	7.433
459.76	7.376
460.11	7.323
460.46	7.244
460.80	7.197
461.15	7.146
461.49	7.105
461.84	7.068
462.19	7.032
462.53	7.013
462.88	7.001
463.22	7.007
463.57	7.021
463.91	7.036
464.26	7.064
464.61	7.066
464.95	7.085
465.30	7.084
465.64	7.082
465.99	7.083
466.33	7.066
466.68	7.059
467.02	7.024
467.37	6.999
467.71	6.952
468.06	6.940
468.41	6.917
468.75	6.883
469.10	6.844
469.44	6.815
469.79	6.779
470.13	6.760
470.48	6.723
470.82	6.705
471.17	6.691
471.51	6.700
471.86	6.670
472.20	6.663
472.55	6.662
472.89	6.650
473.23	6.627
473.58	6.624
473.92	6.615
474.27	6.608
474.61	6.612
474.96	6.616
475.30	6.610
475.65	6.615
475.99	6.619
476.34	6.621
476.68	6.622
477.02	6.632
477.37	6.658
477.71	6.683
478.06	6.747
478.40	6.845
478.75	6.985
479.09	7.146
479.43	7.321
479.78	7.500
480.12	7.675
480.47	7.870
480.81	8.057
481.15	8.235
481.50	8.416
481.84	8.611
482.19	8.818
482.53	8.986
482.87	9.081
483.22	9.092
483.56	9.007
483.90	8.875
484.25	8.690
484.59	8.478
484.94	8.310
485.28	8.163
485.62	7.970
485.97	7.739
486.31	7.528
486.65	7.375
487.00	7.297
487.34	7.289
487.68	7.315
488.03	7.364
488.37	7.435
488.71	7.447
489.06	7.411
489.40	7.376
489.74	7.339
490.09	7.298
490.43	7.260
490.77	7.209
491.11	7.156
491.46	7.094
491.80	7.032
492.14	6.976
492.49	6.899
492.83	6.834
493.17	6.758
493.51	6.697
493.86	6.633
494.20	6.563
494.54	6.527
494.88	6.534
495.23	6.543
495.57	6.557
495.91	6.559
496.25	6.552
496.60	6.544
496.94	6.548
497.28	6.527
497.62	6.504
497.97	6.490
498.31	6.461
498.65	6.425
498.99	6.406
499.33	6.388
499.68	6.364
500.02	6.363
500.36	6.347
500.70	6.335
501.04	6.343
501.39	6.344
501.73	6.355
502.07	6.379
502.41	6.377
502.75	6.357
503.09	6.357
503.44	6.367
503.78	6.370
504.12	6.377
504.46	6.380
504.80	6.376
505.14	6.394
505.49	6.418
505.83	6.407
506.17	6.427
506.51	6.459
506.85	6.469
507.19	6.476
507.53	6.480
507.87	6.497
508.22	6.497
508.56	6.490
508.90	6.478
509.24	6.451
509.58	6.460
509.92	6.440
510.26	6.408
510.60	6.387
510.94	6.370
511.28	6.359
511.63	6.336
511.97	6.337
512.31	6.333
512.65	6.338
512.99	6.371
513.33	6.393
513.67	6.434
514.01	6.480
514.35	6.541
514.69	6.585
515.03	6.649
515.37	6.701
515.71	6.745
516.05	6.806
516.39	6.843
516.73	6.854
517.07	6.861
517.41	6.853
517.75	6.855
518.09	6.822
518.43	6.795
518.77	6.748
519.11	6.708
519.45	6.674
519.79	6.631
520.13	6.606
520.47	6.579
520.81	6.567
521.15	6.576
521.49	6.561
521.83	6.587
522.17	6.617
522.51	6.658
522.85	6.713
523.19	6.791
523.53	6.894
523.87	7.012
524.21	7.133
524.55	7.240
524.89	7.323
525.23	7.415
525.57	7.489
525.91	7.559
526.25	7.617
526.58	7.669
526.92	7.703
527.26	7.718
527.60	7.712
527.94	7.684
528.28	7.651
528.62	7.622
528.96	7.590
529.30	7.547
529.64	7.496
529.97	7.456
530.31	7.408
530.65	7.352
530.99	7.314
531.33	7.283
531.67	7.272
532.01	7.270
532.35	7.266
532.68	7.245
533.02	7.222
533.36	7.201
533.70	7.162
534.04	7.120
534.38	7.086
534.71	7.039
535.05	6.995
535.39	6.950
535.73	6.897
536.07	6.867
536.41	6.872
536.74	6.884
537.08	6.917
537.42	6.948
537.76	7.000
538.10	7.057
538.43	7.116
538.77	7.169
539.11	7.218
539.45	7.260
539.79	7.292
540.12	7.321
540.46	7.352
540.80	7.346
541.14	7.356
541.47	7.329
541.81	7.320
542.15	7.269
542.49	7.229
542.82	7.186
543.16	7.139
543.50	7.086
543.84	7.025
544.17	6.974
544.51	6.938
544.85	6.886
545.18	6.871
545.52	6.819
545.86	6.802
546.20	6.768
546.53	6.718
546.87	6.693
547.21	6.662
547.54	6.611
547.88	6.588
548.22	6.568
548.55	6.565
548.89	6.536
549.23	6.530
549.56	6.541
549.90	6.544
550.24	6.574
550.57	6.580
550.91	6.584
551.25	6.599
551.58	6.578
551.92	6.578
552.26	6.552
552.59	6.544
552.93	6.532
553.27	6.506
553.60	6.472
553.94	6.454
554.27	6.432
554.61	6.419
554.95	6.412
555.28	6.414
555.62	6.403
555.95	6.413
556.29	6.429
556.63	6.434
556.96	6.449
557.30	6.476
557.63	6.468
557.97	6.489
558.31	6.493
558.64	6.506
558.98	6.506
559.31	6.524
559.65	6.527
559.98	6.559
560.32	6.577
560.65	6.578
560.99	6.580
561.33	6.618
561.66	6.625
562.00	6.651
562.33	6.660
562.67	6.684
563.00	6.697
563.34	6.699
563.67	6.687
564.01	6.699
564.34	6.724
564.68	6.755
565.01	6.751
565.35	6.738
565.68	6.742
566.02	6.731
566.35	6.729
566.69	6.726
567.02	6.758
567.36	6.764
567.69	6.763
568.03	6.760
568.36	6.735
568.69	6.742
569.03	6.752
569.36	6.769
569.70	6.779
570.03	6.809
570.37	6.817
570.70	6.823
571.04	6.826
571.37	6.826
571.70	6.828
572.04	6.856
572.37	6.862
572.71	6.857
573.04	6.853
573.37	6.849
573.71	6.825
574.04	6.824
574.38	6.800
574.71	6.806
575.04	6.798
575.38	6.788
575.71	6.752
576.05	6.719
576.38	6.721
576.71	6.681
577.05	6.665
577.38	6.666
577.71	6.630
578.05	6.625
578.38	6.585
578.71	6.562
579.05	6.542
579.38	6.553
579.71	6.550
580.05	6.559
580.38	6.549
580.71	6.535
581.05	6.533
581.38	6.562
581.71	6.550
582.05	6.542
582.38	6.549
582.71	6.544
583.04	6.543
583.38	6.539
583.71	6.510
584.04	6.555
584.38	6.575
584.71	6.572
585.04	6.565
585.37	6.607
585.71	6.625
586.04	6.647
586.37	6.674
586.70	6.691
587.04	6.739
587.37	6.784
587.70	6.772
588.03	6.801
588.37	6.800
588.70	6.806
589.03	6.781
589.36	6.794
589.69	6.789
590.03	6.786
590.36	6.761
590.69	6.730
591.02	6.728
591.35	6.741
591.69	6.750
592.02	6.756
592.35	6.770
592.68	6.796
593.01	6.802
593.35	6.839
593.68	6.866
594.01	6.907
594.34	6.915
594.67	6.923
595.00	6.904
595.34	6.900
595.67	6.888
596.00	6.871
596.33	6.847
596.66	6.835
596.99	6.801
597.32	6.785
597.65	6.737
597.99	6.756
598.32	6.730
598.65	6.736
598.98	6.723
599.31	6.726
599.64	6.715
599.97	6.724
600.30	6.753
600.63	6.786
600.96	6.771
601.30	6.812
601.63	6.813
601.96	6.814
602.29	6.844
602.62	6.873
602.95	6.902
603.28	6.914
603.61	6.920
603.94	6.906
604.27	6.885
604.60	6.904
604.93	6.893
605.26	6.878
605.59	6.892
605.92	6.861
606.25	6.818
606.58	6.812
606.91	6.853
607.24	6.838
607.57	6.844
607.90	6.830
608.23	6.806
608.56	6.801
608.89	6.804
609.22	6.793
609.55	6.763
609.88	6.771
610.21	6.733
610.54	6.686
610.87	6.682
611.20	6.632
611.53	6.629
611.86	6.614
612.19	6.590
612.52	6.569
612.85	6.523
613.18	6.552
613.51	6.536
613.84	6.520
614.17	6.523
614.49	6.553
614.82	6.620
615.15	6.596
615.48	6.591
615.81	6.549
616.14	6.543
616.47	6.581
616.80	6.568
617.13	6.555
617.46	6.556
617.78	6.543
618.11	6.501
618.44	6.456
618.77	6.475
619.10	6.502
619.43	6.502
619.76	6.497
620.09	6.484
620.41	6.494
620.74	6.508
621.07	6.529
621.40	6.545
621.73	6.563
622.06	6.586
622.38	6.585
622.71	6.625
623.04	6.681
623.37	6.682
623.70	6.676
624.02	6.731
624.35	6.748
624.68	6.785
625.01	6.799
625.34	6.825
625.66	6.802
625.99	6.802
626.32	6.750
626.65	6.721
626.98	6.744
627.30	6.759
627.63	6.688
627.96	6.655
628.29	6.625
628.61	6.612
628.94	6.579
629.27	6.595
629.60	6.619
629.92	6.608
630.25	6.615
630.58	6.586
630.91	6.573
631.23	6.569
631.56	6.600
631.89	6.585
632.21	6.555
632.54	6.555
632.87	6.543
633.19	6.501
633.52	6.523
633.85	6.509
634.18	6.503
634.50	6.512
634.83	6.489
635.16	6.450
635.48	6.428
635.81	6.400
636.14	6.338
636.46	6.302
636.79	6.288
637.11	6.259
637.44	6.233
637.77	6.208
638.09	6.154
638.42	6.152
638.75	6.128
639.07	6.116
639.40	6.109
639.73	6.113
640.05	6.086
640.38	6.027
640.70	6.014
641.03	5.985
641.36	6.017
641.68	6.037
642.01	6.065
642.33	6.047
642.66	6.059
642.98	6.047
643.31	6.049
643.64	6.087
643.96	6.140
644.29	6.154
644.61	6.216
644.94	6.182
645.26	6.190
645.59	6.159
645.91	6.208
646.24	6.217
646.56	6.241
646.89	6.244
647.22	6.238
647.54	6.268
647.87	6.288
648.19	6.264
648.52	6.278
648.84	6.229
649.17	6.205
649.49	6.148
649.82	6.101
650.14	6.085
650.47	6.090
650.79	6.067
651.11	6.013
651.44	5.963
651.76	5.938
652.09	5.917
