OOIBase32 Version 2.0.0.6 Data File
++++++++++++++++++++++++++++++++++++
Date: 01-23-2012, 21:58:40
User: Valued Ocean Optics Customer
Spectrometer Serial Number: USB2E2917
Spectrometer Channel: Master
Integration Time (msec): 5
Spectra Averaged: 10
Boxcar Smoothing: 5
Correct for Electrical Dark: Enabled
Time Normalized: Disabled
Dual-beam Reference: Disabled
Reference Channel: Master
Temperature: Not acquired
Spectrometer Type: S2000
ADC Type: USB2000
Number of Pixels in File: 2048
Graph Title: 
>>>>>Begin Spectral Data<<<<<
180.30	0.000
180.67	0.000
181.03	233.010
181.40	44.842
181.77	1709.000
182.14	70.094
182.51	55.526
182.88	-481.409
183.25	244.120
183.62	-8.513
183.99	47.152
184.36	-191.654
184.73	357.553
185.10	-127.674
185.46	-30.839
185.83	151.111
186.20	83.084
186.57	340.774
186.94	113.040
187.31	81.887
187.68	0.906
188.05	-58.183
188.42	-2.405
188.78	15.180
189.15	21.053
189.52	26.676
189.89	19.175
190.26	7.934
190.63	35.853
191.00	27.490
191.37	32.941
191.73	40.847
192.10	58.896
192.47	36.844
192.84	23.408
193.21	17.147
193.58	6.711
193.94	6.929
194.31	1.878
194.68	-3.679
195.05	-10.410
195.42	-35.643
195.79	-36.883
196.15	-32.448
196.52	-25.775
196.89	-32.344
197.26	-24.774
197.63	-15.764
198.00	-2.826
198.36	9.444
198.73	15.901
199.10	22.405
199.47	38.858
199.84	37.053
200.20	41.801
200.57	32.693
200.94	36.601
201.31	44.440
201.68	55.549
202.04	53.738
202.41	55.062
202.78	34.870
203.15	32.237
203.51	7.134
203.88	3.960
204.25	-4.068
204.62	17.716
204.98	18.436
205.35	22.150
205.72	19.855
206.09	15.373
206.46	11.787
206.82	26.369
207.19	12.862
207.56	15.914
207.92	20.590
208.29	18.567
208.66	23.510
209.03	20.946
209.39	1.561
209.76	-9.089
210.13	-20.597
210.50	-24.913
210.86	-17.003
211.23	6.446
211.60	6.895
211.96	3.492
212.33	0.107
212.70	-0.030
213.07	-8.661
213.43	3.217
213.80	1.936
214.17	2.300
214.53	4.787
214.90	5.466
215.27	-0.825
215.63	0.472
216.00	-0.406
216.37	2.238
216.74	-11.124
217.10	-0.033
217.47	-6.354
217.84	-0.625
218.20	10.256
218.57	18.553
218.94	11.215
219.30	11.037
219.67	10.805
220.04	9.879
220.40	13.266
220.77	14.498
221.13	3.117
221.50	0.947
221.87	-2.762
222.23	-1.474
222.60	-6.802
222.97	-4.086
223.33	-3.576
223.70	-3.550
224.07	1.972
224.43	2.709
224.80	5.552
225.16	7.792
225.53	10.806
225.90	7.321
226.26	4.361
226.63	2.590
226.99	2.492
227.36	1.945
227.73	2.483
228.09	-0.308
228.46	0.322
228.82	1.599
229.19	1.630
229.56	-2.077
229.92	0.123
230.29	2.795
230.65	4.718
231.02	5.545
231.38	5.678
231.75	6.461
232.12	8.239
232.48	8.789
232.85	5.228
233.21	6.475
233.58	7.075
233.94	8.718
234.31	6.729
234.68	5.488
235.04	5.354
235.41	5.611
235.77	4.436
236.14	4.929
236.50	2.173
236.87	4.625
237.23	3.108
237.60	4.684
237.96	4.010
238.33	5.045
238.69	5.470
239.06	4.658
239.42	4.366
239.79	4.771
240.15	4.328
240.52	4.812
240.88	4.584
241.25	5.320
241.61	4.849
241.98	4.896
242.34	4.102
242.71	4.606
243.07	5.149
243.44	5.441
243.80	5.188
244.17	5.895
244.53	5.817
244.90	5.659
245.26	5.586
245.63	5.787
245.99	5.694
246.36	6.120
246.72	5.424
247.09	5.008
247.45	4.721
247.81	4.627
248.18	3.788
248.54	3.985
248.91	3.808
249.27	3.909
249.64	3.539
250.00	3.718
250.36	3.426
250.73	3.812
251.09	4.360
251.46	4.861
251.82	5.453
252.19	5.970
252.55	5.445
252.91	5.797
253.28	4.796
253.64	5.195
254.01	5.237
254.37	5.326
254.73	6.048
255.10	6.235
255.46	5.912
255.83	5.369
256.19	5.237
256.55	5.241
256.92	4.980
257.28	4.995
257.65	5.029
258.01	4.972
258.37	4.880
258.74	4.564
259.10	4.438
259.46	4.347
259.83	4.387
260.19	4.346
260.55	4.347
260.92	4.352
261.28	4.430
261.64	4.234
262.01	3.909
262.37	3.624
262.73	3.471
263.10	3.275
263.46	3.499
263.82	3.469
264.19	3.185
264.55	3.152
264.91	3.191
265.28	3.516
265.64	3.508
266.00	3.426
266.37	3.454
266.73	3.584
267.09	3.555
267.46	3.615
267.82	3.697
268.18	3.906
268.54	3.774
268.91	4.085
269.27	4.117
269.63	4.304
270.00	4.515
270.36	4.519
270.72	4.299
271.08	3.925
271.45	3.752
271.81	3.794
272.17	3.734
272.53	3.650
272.90	3.236
273.26	3.127
273.62	2.912
273.98	2.853
274.35	2.908
274.71	3.273
275.07	3.676
275.43	3.843
275.80	3.884
276.16	4.188
276.52	4.155
276.88	4.303
277.25	3.883
277.61	3.834
277.97	3.654
278.33	3.484
278.69	3.406
279.06	3.645
279.42	3.261
279.78	3.110
280.14	2.888
280.50	3.092
280.87	3.146
281.23	3.645
281.59	3.619
281.95	3.764
282.31	4.033
282.68	4.003
283.04	3.853
283.40	4.030
283.76	3.875
284.12	3.941
284.48	3.940
284.85	3.927
285.21	3.569
285.57	3.581
285.93	3.563
286.29	3.451
286.65	3.387
287.02	3.274
287.38	3.317
287.74	3.454
288.10	3.275
288.46	3.187
288.82	3.103
289.18	3.253
289.54	3.239
289.91	3.253
290.27	3.280
290.63	3.427
290.99	3.321
291.35	3.465
291.71	3.773
292.07	3.841
292.43	4.020
292.79	4.324
293.16	4.422
293.52	4.448
293.88	4.539
294.24	4.505
294.60	4.281
294.96	4.478
295.32	4.229
295.68	3.827
296.04	3.879
296.40	3.855
296.76	3.698
297.12	3.664
297.49	3.779
297.85	3.821
298.21	3.810
298.57	3.892
298.93	3.790
299.29	3.913
299.65	4.078
300.01	4.130
300.37	4.187
300.73	4.325
301.09	4.445
301.45	4.488
301.81	4.326
302.17	4.404
302.53	4.498
302.89	4.547
303.25	4.401
303.61	4.571
303.97	4.552
304.33	4.522
304.69	4.345
305.05	4.183
305.41	3.998
305.77	3.966
306.13	3.843
306.49	3.928
306.85	3.980
307.21	4.122
307.57	4.034
307.93	4.127
308.29	4.137
308.65	4.101
309.01	4.219
309.37	4.306
309.73	4.328
310.09	4.315
310.45	4.248
310.81	4.224
311.17	4.116
311.53	4.169
311.89	4.177
312.25	4.145
312.61	4.275
312.96	4.328
313.32	4.315
313.68	4.235
314.04	4.378
314.40	4.426
314.76	4.418
315.12	4.703
315.48	4.768
315.84	4.658
316.20	4.805
316.56	4.857
316.92	4.681
317.27	4.638
317.63	4.726
317.99	4.680
318.35	4.493
318.71	4.413
319.07	4.241
319.43	4.260
319.79	4.270
320.15	4.108
320.50	3.919
320.86	4.075
321.22	4.102
321.58	4.204
321.94	4.188
322.30	4.371
322.66	4.515
323.01	4.588
323.37	4.526
323.73	4.572
324.09	4.603
324.45	4.772
324.81	4.709
325.17	4.652
325.52	4.595
325.88	4.545
326.24	4.484
326.60	4.495
326.96	4.551
327.31	4.516
327.67	4.552
328.03	4.512
328.39	4.325
328.75	4.376
329.11	4.476
329.46	4.476
329.82	4.602
330.18	4.695
330.54	4.706
330.90	4.617
331.25	4.540
331.61	4.460
331.97	4.528
332.33	4.613
332.68	4.457
333.04	4.370
333.40	4.496
333.76	4.459
334.11	4.376
334.47	4.286
334.83	4.223
335.19	4.330
335.54	4.390
335.90	4.400
336.26	4.409
336.62	4.549
336.97	4.552
337.33	4.429
337.69	4.387
338.05	4.412
338.40	4.460
338.76	4.534
339.12	4.558
339.48	4.544
339.83	4.493
340.19	4.508
340.55	4.398
340.90	4.417
341.26	4.389
341.62	4.435
341.97	4.486
342.33	4.547
342.69	4.466
343.04	4.420
343.40	4.350
343.76	4.453
344.12	4.509
344.47	4.598
344.83	4.567
345.19	4.528
345.54	4.581
345.90	4.604
346.26	4.470
346.61	4.532
346.97	4.491
347.32	4.584
347.68	4.515
348.04	4.460
348.39	4.494
348.75	4.570
349.11	4.558
349.46	4.456
349.82	4.358
350.18	4.458
350.53	4.403
350.89	4.460
351.24	4.359
351.60	4.323
351.96	4.275
352.31	4.231
352.67	4.227
353.02	4.265
353.38	4.278
353.74	4.310
354.09	4.297
354.45	4.403
354.80	4.368
355.16	4.490
355.52	4.535
355.87	4.543
356.23	4.538
356.58	4.571
356.94	4.600
357.29	4.582
357.65	4.530
358.00	4.531
358.36	4.490
358.72	4.513
359.07	4.445
359.43	4.432
359.78	4.434
360.14	4.418
360.49	4.336
360.85	4.318
361.20	4.360
361.56	4.399
361.91	4.355
362.27	4.382
362.62	4.342
362.98	4.320
363.33	4.294
363.69	4.265
364.04	4.224
364.40	4.316
364.75	4.310
365.11	4.308
365.46	4.281
365.82	4.302
366.17	4.215
366.53	4.242
366.88	4.271
367.24	4.372
367.59	4.453
367.95	4.535
368.30	4.473
368.66	4.503
369.01	4.472
369.37	4.499
369.72	4.456
370.08	4.517
370.43	4.511
370.78	4.512
371.14	4.375
371.49	4.393
371.85	4.350
372.20	4.357
372.56	4.393
372.91	4.395
373.26	4.349
373.62	4.425
373.97	4.426
374.33	4.435
374.68	4.398
375.03	4.510
375.39	4.446
375.74	4.501
376.10	4.481
376.45	4.441
376.80	4.456
377.16	4.533
377.51	4.563
377.87	4.574
378.22	4.594
378.57	4.691
378.93	4.653
379.28	4.734
379.63	4.725
379.99	4.817
380.34	4.854
380.70	4.910
381.05	4.934
381.40	4.918
381.76	4.927
382.11	4.932
382.46	4.853
382.82	4.860
383.17	4.839
383.52	4.829
383.88	4.746
384.23	4.739
384.58	4.739
384.94	4.726
385.29	4.715
385.64	4.760
385.99	4.812
386.35	4.901
386.70	4.938
387.05	4.965
387.41	5.007
387.76	5.071
388.11	5.074
388.47	5.103
388.82	5.091
389.17	5.138
389.52	5.121
389.88	5.137
390.23	5.148
390.58	5.192
390.93	5.187
391.29	5.235
391.64	5.246
391.99	5.283
392.34	5.318
392.70	5.369
393.05	5.359
393.40	5.385
393.75	5.427
394.11	5.394
394.46	5.404
394.81	5.433
395.16	5.366
395.52	5.417
395.87	5.410
396.22	5.384
396.57	5.386
396.92	5.406
397.28	5.434
397.63	5.382
397.98	5.482
398.33	5.499
398.68	5.529
399.04	5.586
399.39	5.584
399.74	5.633
400.09	5.661
400.44	5.713
400.80	5.729
401.15	5.736
401.50	5.776
401.85	5.801
402.20	5.830
402.55	5.871
402.90	5.895
403.26	5.949
403.61	5.986
403.96	6.046
404.31	6.072
404.66	6.136
405.01	6.172
405.36	6.241
405.72	6.212
406.07	6.254
406.42	6.286
406.77	6.354
407.12	6.368
407.47	6.444
407.82	6.473
408.17	6.504
408.53	6.553
408.88	6.626
409.23	6.654
409.58	6.716
409.93	6.739
410.28	6.786
410.63	6.806
410.98	6.868
411.33	6.853
411.68	6.879
412.03	6.960
412.38	7.022
412.73	7.042
413.09	7.080
413.44	7.134
413.79	7.211
414.14	7.247
414.49	7.289
414.84	7.323
415.19	7.405
415.54	7.455
415.89	7.459
416.24	7.467
416.59	7.508
416.94	7.555
417.29	7.589
417.64	7.596
417.99	7.633
418.34	7.676
418.69	7.703
419.04	7.727
419.39	7.766
419.74	7.835
420.09	7.883
420.44	7.933
420.79	7.968
421.14	7.996
421.49	8.052
421.84	8.087
422.19	8.119
422.54	8.166
422.89	8.199
423.24	8.242
423.59	8.268
423.94	8.302
424.29	8.326
424.64	8.352
424.99	8.423
425.34	8.470
425.68	8.523
426.03	8.586
426.38	8.629
426.73	8.674
427.08	8.703
427.43	8.736
427.78	8.792
428.13	8.851
428.48	8.906
428.83	8.947
429.18	8.972
429.53	8.996
429.87	9.032
430.22	9.046
430.57	9.093
430.92	9.113
431.27	9.152
431.62	9.152
431.97	9.157
432.32	9.191
432.67	9.215
433.01	9.245
433.36	9.288
433.71	9.306
434.06	9.356
434.41	9.392
434.76	9.469
435.11	9.493
435.45	9.534
435.80	9.575
436.15	9.617
436.50	9.639
436.85	9.652
437.20	9.665
437.54	9.701
437.89	9.718
438.24	9.747
438.59	9.733
438.94	9.760
439.29	9.791
439.63	9.813
439.98	9.836
440.33	9.840
440.68	9.876
441.03	9.921
441.37	9.934
441.72	9.985
442.07	9.997
442.42	10.039
442.76	10.051
443.11	10.084
443.46	10.085
443.81	10.097
444.16	10.129
444.50	10.153
444.85	10.175
445.20	10.192
445.55	10.179
445.89	10.202
446.24	10.209
446.59	10.237
446.94	10.261
447.28	10.324
447.63	10.360
447.98	10.400
448.32	10.446
448.67	10.447
449.02	10.489
449.37	10.548
449.71	10.563
450.06	10.602
450.41	10.620
450.75	10.643
451.10	10.627
451.45	10.639
451.79	10.628
452.14	10.600
452.49	10.637
452.84	10.662
453.18	10.665
453.53	10.693
453.88	10.720
454.22	10.758
454.57	10.775
454.92	10.860
455.26	10.898
455.61	10.951
455.95	11.001
456.30	11.028
456.65	11.052
456.99	11.088
457.34	11.122
457.69	11.151
458.03	11.165
458.38	11.180
458.73	11.168
459.07	11.203
459.42	11.220
459.76	11.224
460.11	11.245
460.46	11.269
460.80	11.317
461.15	11.336
461.49	11.354
461.84	11.417
462.19	11.475
462.53	11.551
462.88	11.585
463.22	11.632
463.57	11.703
463.91	11.751
464.26	11.796
464.61	11.830
464.95	11.879
465.30	11.919
465.64	11.943
465.99	11.982
466.33	11.986
466.68	12.009
467.02	12.035
467.37	12.075
467.71	12.118
468.06	12.152
468.41	12.154
468.75	12.178
469.10	12.200
469.44	12.218
469.79	12.244
470.13	12.279
470.48	12.284
470.82	12.316
471.17	12.326
471.51	12.319
471.86	12.336
472.20	12.368
472.55	12.407
472.89	12.431
473.23	12.433
473.58	12.439
473.92	12.452
474.27	12.483
474.61	12.509
474.96	12.516
475.30	12.516
475.65	12.524
475.99	12.537
476.34	12.534
476.68	12.556
477.02	12.591
477.37	12.612
477.71	12.630
478.06	12.646
478.40	12.695
478.75	12.771
479.09	12.908
479.43	13.014
479.78	13.156
480.12	13.313
480.47	13.482
480.81	13.664
481.15	13.862
481.50	14.072
481.84	14.318
482.19	14.573
482.53	14.792
482.87	14.885
483.22	14.861
483.56	14.711
483.90	14.493
484.25	14.221
484.59	13.961
484.94	13.766
485.28	13.575
485.62	13.340
485.97	13.065
486.31	12.821
486.65	12.684
487.00	12.689
487.34	12.798
487.68	12.954
488.03	13.148
488.37	13.310
488.71	13.364
489.06	13.399
489.40	13.407
489.74	13.428
490.09	13.454
490.43	13.464
490.77	13.460
491.11	13.453
491.46	13.468
491.80	13.474
492.14	13.479
492.49	13.495
492.83	13.495
493.17	13.510
493.51	13.538
493.86	13.566
494.20	13.615
494.54	13.649
494.88	13.698
495.23	13.730
495.57	13.788
495.91	13.844
496.25	13.888
496.60	13.916
496.94	13.960
497.28	13.999
497.62	14.059
497.97	14.084
498.31	14.162
498.65	14.197
498.99	14.269
499.33	14.313
499.68	14.359
500.02	14.409
500.36	14.454
500.70	14.521
501.04	14.575
501.39	14.599
501.73	14.660
502.07	14.690
502.41	14.770
502.75	14.785
503.09	14.826
503.44	14.870
503.78	14.924
504.12	14.978
504.46	15.018
504.80	15.061
505.14	15.098
505.49	15.140
505.83	15.186
506.17	15.210
506.51	15.254
506.85	15.271
507.19	15.314
507.53	15.335
507.87	15.374
508.22	15.409
508.56	15.461
508.90	15.494
509.24	15.538
509.58	15.570
509.92	15.603
510.26	15.646
510.60	15.734
510.94	15.773
511.28	15.832
511.63	15.903
511.97	15.949
512.31	15.985
512.65	16.032
512.99	16.077
513.33	16.123
513.67	16.195
514.01	16.250
514.35	16.298
514.69	16.336
515.03	16.385
515.37	16.397
515.71	16.428
516.05	16.454
516.39	16.486
516.73	16.518
517.07	16.568
517.41	16.596
517.75	16.617
518.09	16.634
518.43	16.679
518.77	16.708
519.11	16.748
519.45	16.803
519.79	16.850
520.13	16.931
520.47	16.987
520.81	17.013
521.15	17.049
521.49	17.122
521.83	17.163
522.17	17.213
522.51	17.250
522.85	17.298
523.19	17.359
523.53	17.476
523.87	17.570
524.21	17.700
524.55	17.821
524.89	17.925
525.23	18.014
525.57	18.116
525.91	18.195
526.25	18.282
526.58	18.365
526.92	18.422
527.26	18.439
527.60	18.448
527.94	18.420
528.28	18.390
528.62	18.371
528.96	18.342
529.30	18.312
529.64	18.283
529.97	18.237
530.31	18.200
530.65	18.163
530.99	18.152
531.33	18.158
531.67	18.189
532.01	18.208
532.35	18.235
532.68	18.248
533.02	18.258
533.36	18.275
533.70	18.295
534.04	18.297
534.38	18.322
534.71	18.359
535.05	18.375
535.39	18.368
535.73	18.416
536.07	18.440
536.41	18.503
536.74	18.564
537.08	18.614
537.42	18.692
537.76	18.770
538.10	18.828
538.43	18.897
538.77	18.950
539.11	19.017
539.45	19.064
539.79	19.097
540.12	19.122
540.46	19.120
540.80	19.119
541.14	19.093
541.47	19.099
541.81	19.118
542.15	19.097
542.49	19.104
542.82	19.087
543.16	19.090
543.50	19.093
543.84	19.111
544.17	19.146
544.51	19.206
544.85	19.265
545.18	19.270
545.52	19.285
545.86	19.314
546.20	19.340
546.53	19.400
546.87	19.413
547.21	19.450
547.54	19.486
547.88	19.526
548.22	19.561
548.55	19.602
548.89	19.667
549.23	19.712
549.56	19.727
549.90	19.772
550.24	19.807
550.57	19.873
550.91	19.888
551.25	19.928
551.58	19.964
551.92	19.988
552.26	20.020
552.59	20.042
552.93	20.080
553.27	20.141
553.60	20.161
553.94	20.199
554.27	20.232
554.61	20.295
554.95	20.313
555.28	20.345
555.62	20.390
555.95	20.433
556.29	20.471
556.63	20.518
556.96	20.511
557.30	20.548
557.63	20.588
557.97	20.626
558.31	20.653
558.64	20.713
558.98	20.726
559.31	20.736
559.65	20.741
559.98	20.761
560.32	20.764
560.65	20.815
560.99	20.836
561.33	20.863
561.66	20.844
562.00	20.888
562.33	20.889
562.67	20.935
563.00	20.967
563.34	21.013
563.67	21.015
564.01	21.015
564.34	21.018
564.68	21.030
565.01	21.012
565.35	21.023
565.68	21.011
566.02	21.019
566.35	21.032
566.69	21.044
567.02	21.059
567.36	21.099
567.69	21.124
568.03	21.163
568.36	21.185
568.69	21.216
569.03	21.285
569.36	21.317
569.70	21.342
570.03	21.361
570.37	21.378
570.70	21.395
571.04	21.388
571.37	21.411
571.70	21.419
572.04	21.443
572.37	21.464
572.71	21.431
573.04	21.452
573.37	21.486
573.71	21.507
574.04	21.525
574.38	21.537
574.71	21.595
575.04	21.634
575.38	21.673
575.71	21.704
576.05	21.750
576.38	21.822
576.71	21.863
577.05	21.874
577.38	21.928
577.71	21.997
578.05	22.046
578.38	22.063
578.71	22.072
579.05	22.084
579.38	22.114
579.71	22.129
580.05	22.128
580.38	22.153
580.71	22.181
581.05	22.181
581.38	22.175
581.71	22.171
582.05	22.212
582.38	22.255
582.71	22.285
583.04	22.278
583.38	22.294
583.71	22.324
584.04	22.328
584.38	22.366
584.71	22.355
585.04	22.366
585.37	22.395
585.71	22.392
586.04	22.395
586.37	22.373
586.70	22.407
587.04	22.396
587.37	22.406
587.70	22.425
588.03	22.434
588.37	22.442
588.70	22.420
589.03	22.402
589.36	22.419
589.69	22.386
590.03	22.419
590.36	22.373
590.69	22.399
591.02	22.393
591.35	22.357
591.69	22.316
592.02	22.286
592.35	22.286
592.68	22.272
593.01	22.237
593.35	22.251
593.68	22.230
594.01	22.231
594.34	22.197
594.67	22.159
595.00	22.144
595.34	22.116
595.67	22.120
596.00	22.127
596.33	22.105
596.66	22.114
596.99	22.108
597.32	22.102
597.65	22.154
597.99	22.154
598.32	22.163
598.65	22.203
598.98	22.234
599.31	22.239
599.64	22.230
599.97	22.257
600.30	22.191
600.63	22.178
600.96	22.157
601.30	22.091
601.63	22.051
601.96	22.048
602.29	21.996
602.62	21.995
602.95	21.978
603.28	21.932
603.61	21.914
603.94	21.950
604.27	21.928
604.60	21.916
604.93	21.914
605.26	21.931
605.59	21.927
605.92	21.934
606.25	21.901
606.58	21.933
606.91	21.964
607.24	21.958
607.57	21.894
607.90	21.920
608.23	21.895
608.56	21.892
608.89	21.882
609.22	21.873
609.55	21.855
609.88	21.850
610.21	21.814
610.54	21.813
610.87	21.781
611.20	21.853
611.53	21.824
611.86	21.870
612.19	21.884
612.52	21.914
612.85	21.938
613.18	21.968
613.51	21.967
613.84	21.924
614.17	21.899
614.49	21.908
614.82	21.880
615.15	21.879
615.48	21.873
615.81	21.863
616.14	21.812
616.47	21.786
616.80	21.743
617.13	21.709
617.46	21.723
617.78	21.693
618.11	21.702
618.44	21.675
618.77	21.624
619.10	21.607
619.43	21.582
619.76	21.586
620.09	21.570
620.41	21.593
620.74	21.589
621.07	21.585
621.40	21.575
621.73	21.533
622.06	21.493
622.38	21.474
622.71	21.413
623.04	21.364
623.37	21.340
623.70	21.313
624.02	21.280
624.35	21.271
624.68	21.223
625.01	21.220
625.34	21.190
625.66	21.202
625.99	21.215
626.32	21.186
626.65	21.190
626.98	21.211
627.30	21.193
627.63	21.163
627.96	21.132
628.29	21.151
628.61	21.111
628.94	21.123
629.27	21.116
629.60	21.118
629.92	21.145
630.25	21.156
630.58	21.078
630.91	21.068
631.23	21.031
631.56	21.055
631.89	21.042
632.21	21.058
632.54	21.007
632.87	20.968
633.19	20.901
633.52	20.897
633.85	20.830
634.18	20.773
634.50	20.709
634.83	20.702
635.16	20.646
635.48	20.615
635.81	20.566
636.14	20.588
636.46	20.606
636.79	20.611
637.11	20.561
637.44	20.589
637.77	20.611
638.09	20.597
638.42	20.505
638.75	20.493
639.07	20.480
639.40	20.441
639.73	20.376
640.05	20.360
640.38	20.351
640.70	20.368
641.03	20.360
641.36	20.411
641.68	20.392
642.01	20.454
642.33	20.471
642.66	20.464
642.98	20.462
643.31	20.449
643.64	20.362
643.96	20.305
644.29	20.253
644.61	20.217
644.94	20.100
645.26	20.092
645.59	20.069
645.91	20.057
646.24	20.017
