OOIBase32 Version 2.0.0.6 Data File
++++++++++++++++++++++++++++++++++++
Date: 01-23-2012, 23:09:28
User: Valued Ocean Optics Customer
Spectrometer Serial Number: USB2E2917
Spectrometer Channel: Master
Integration Time (msec): 5
Spectra Averaged: 10
Boxcar Smoothing: 5
Correct for Electrical Dark: Enabled
Time Normalized: Disabled
Dual-beam Reference: Disabled
Reference Channel: Master
Temperature: Not acquired
Spectrometer Type: S2000
ADC Type: USB2000
Number of Pixels in File: 2048
Graph Title: 
>>>>>Begin Spectral Data<<<<<
180.30	0.000
180.67	0.000
181.03	30.811
181.40	476.839
181.77	-9832.951
182.14	-12.676
182.51	-746.575
182.88	-99.038
183.25	42.846
183.62	40.852
183.99	98.210
184.36	81.971
184.73	610.532
185.10	42.859
185.46	148.009
185.83	-572.003
186.20	90.254
186.57	38.912
186.94	-63.466
187.31	-3.431
187.68	91.782
188.05	107.644
188.42	105.423
188.78	221.633
189.15	367.424
189.52	-119.808
189.89	-21.544
190.26	5.762
190.63	19.444
191.00	32.100
191.37	35.889
191.73	50.892
192.10	51.031
192.47	43.436
192.84	51.323
193.21	52.941
193.58	49.397
193.94	59.729
194.31	52.288
194.68	38.332
195.05	35.853
195.42	45.913
195.79	33.885
196.15	29.671
196.52	47.055
196.89	27.723
197.26	7.844
197.63	30.860
198.00	30.087
198.36	34.944
198.73	34.226
199.10	2.308
199.47	-5.153
199.84	-5.573
200.20	-17.707
200.57	-30.245
200.94	-23.333
201.31	-9.902
201.68	-20.568
202.04	-26.689
202.41	-28.180
202.78	-31.462
203.15	-25.580
203.51	-25.936
203.88	-23.066
204.25	-11.632
204.62	-27.550
204.98	-51.407
205.35	-36.540
205.72	-33.552
206.09	-12.150
206.46	-66.112
206.82	-48.861
207.19	-49.729
207.56	-78.639
207.92	-82.100
208.29	-87.319
208.66	-43.732
209.03	-17.233
209.39	-23.138
209.76	-35.524
210.13	-97.865
210.50	-52.566
210.86	-55.283
211.23	-67.165
211.60	-59.558
211.96	-63.484
212.33	-50.988
212.70	-64.548
213.07	-71.994
213.43	-109.253
213.80	-94.216
214.17	-60.942
214.53	-59.940
214.90	-47.777
215.27	-36.950
215.63	-41.761
216.00	-28.586
216.37	-35.102
216.74	-41.308
217.10	-37.276
217.47	-37.298
217.84	-28.540
218.20	-24.742
218.57	-9.940
218.94	-8.367
219.30	-12.119
219.67	-9.320
220.04	-12.665
220.40	-12.351
220.77	-7.826
221.13	-4.769
221.50	5.848
221.87	4.306
222.23	0.686
222.60	-4.950
222.97	-5.281
223.33	-7.297
223.70	-6.073
224.07	-8.076
224.43	-7.671
224.80	-6.424
225.16	-7.886
225.53	-11.093
225.90	-13.196
226.26	-9.884
226.63	-7.485
226.99	-5.929
227.36	-5.432
227.73	-4.441
228.09	-3.631
228.46	-2.158
228.82	-1.360
229.19	-1.627
229.56	-0.004
229.92	2.624
230.29	2.392
230.65	3.022
231.02	-0.559
231.38	-1.470
231.75	-2.551
232.12	-4.561
232.48	-7.348
232.85	-8.660
233.21	-6.631
233.58	-10.069
233.94	-9.721
234.31	-9.702
234.68	-9.735
235.04	-7.765
235.41	-6.041
235.77	-4.796
236.14	-1.779
236.50	-0.528
236.87	-0.764
237.23	-1.155
237.60	-0.181
237.96	-0.654
238.33	-0.740
238.69	-2.049
239.06	-1.694
239.42	-1.696
239.79	-1.888
240.15	-1.817
240.52	-1.038
240.88	-0.094
241.25	0.086
241.61	0.522
241.98	0.549
242.34	0.320
242.71	0.849
243.07	0.774
243.44	0.703
243.80	0.690
244.17	0.298
244.53	-0.034
244.90	-0.079
245.26	-0.061
245.63	-0.251
245.99	-0.421
246.36	-0.333
246.72	-0.336
247.09	-0.616
247.45	-0.371
247.81	-0.065
248.18	-0.185
248.54	-0.089
248.91	-0.504
249.27	-0.705
249.64	-0.226
250.00	0.084
250.36	-0.288
250.73	-0.320
251.09	-0.163
251.46	-0.712
251.82	-0.978
252.19	-0.674
252.55	-0.765
252.91	-0.079
253.28	0.077
253.64	-0.659
254.01	-0.954
254.37	0.072
254.73	0.022
255.10	0.483
255.46	1.103
255.83	1.101
256.19	1.163
256.55	1.055
256.92	0.769
257.28	0.624
257.65	0.768
258.01	0.896
258.37	0.635
258.74	0.545
259.10	0.378
259.46	0.081
259.83	0.041
260.19	-0.066
260.55	-0.103
260.92	-0.279
261.28	-0.298
261.64	-0.262
262.01	-0.307
262.37	-0.444
262.73	-0.428
263.10	-0.291
263.46	-0.356
263.82	-0.550
264.19	-0.622
264.55	-0.786
264.91	-0.801
265.28	-0.754
265.64	-0.947
266.00	-1.060
266.37	-1.039
266.73	-1.122
267.09	-1.145
267.46	-0.666
267.82	-0.658
268.18	-0.553
268.54	-0.143
268.91	0.063
269.27	0.111
269.63	0.558
270.00	0.607
270.36	0.646
270.72	0.953
271.08	1.024
271.45	0.666
271.81	0.686
272.17	0.715
272.53	0.360
272.90	0.211
273.26	0.463
273.62	0.121
273.98	0.185
274.35	0.062
274.71	-0.166
275.07	-0.168
275.43	0.103
275.80	0.206
276.16	0.090
276.52	0.256
276.88	0.357
277.25	-0.077
277.61	-0.202
277.97	-0.594
278.33	-0.414
278.69	-0.398
279.06	-0.426
279.42	-0.616
279.78	-0.591
280.14	-0.332
280.50	-0.237
280.87	-0.084
281.23	0.010
281.59	0.176
281.95	0.428
282.31	0.528
282.68	0.469
283.04	0.317
283.40	0.508
283.76	0.549
284.12	0.483
284.48	0.446
284.85	0.469
285.21	0.609
285.57	0.676
285.93	0.652
286.29	0.506
286.65	0.617
287.02	1.056
287.38	1.024
287.74	0.881
288.10	0.884
288.46	0.857
288.82	0.619
289.18	0.599
289.54	0.470
289.91	0.485
290.27	0.592
290.63	0.720
290.99	0.594
291.35	0.635
291.71	0.955
292.07	0.936
292.43	0.876
292.79	1.050
293.16	1.085
293.52	1.277
293.88	1.383
294.24	1.450
294.60	1.273
294.96	1.157
295.32	1.180
295.68	0.889
296.04	0.814
296.40	0.889
296.76	0.869
297.12	0.788
297.49	0.645
297.85	0.540
298.21	0.502
298.57	0.372
298.93	0.400
299.29	0.199
299.65	0.433
300.01	0.524
300.37	0.598
300.73	0.749
301.09	0.851
301.45	0.852
301.81	0.875
302.17	0.884
302.53	0.855
302.89	0.788
303.25	0.872
303.61	0.787
303.97	0.662
304.33	0.552
304.69	0.473
305.05	0.355
305.41	0.395
305.77	0.508
306.13	0.576
306.49	0.774
306.85	0.801
307.21	0.896
307.57	0.934
307.93	1.037
308.29	1.175
308.65	1.148
309.01	1.156
309.37	1.157
309.73	1.071
310.09	1.105
310.45	1.073
310.81	1.083
311.17	0.905
311.53	0.847
311.89	0.855
312.25	0.790
312.61	0.734
312.96	0.787
313.32	0.917
313.68	0.959
314.04	0.800
314.40	0.850
314.76	0.831
315.12	0.855
315.48	0.856
315.84	0.866
316.20	0.857
316.56	0.824
316.92	0.726
317.27	0.500
317.63	0.395
317.99	0.305
318.35	0.341
318.71	0.340
319.07	0.438
319.43	0.490
319.79	0.497
320.15	0.443
320.50	0.535
320.86	0.583
321.22	0.612
321.58	0.669
321.94	0.672
322.30	0.590
322.66	0.487
323.01	0.387
323.37	0.349
323.73	0.282
324.09	0.253
324.45	0.342
324.81	0.217
325.17	0.302
325.52	0.206
325.88	0.238
326.24	0.227
326.60	0.308
326.96	0.415
327.31	0.326
327.67	0.225
328.03	0.209
328.39	0.037
328.75	0.171
329.11	0.154
329.46	0.266
329.82	0.349
330.18	0.347
330.54	0.356
330.90	0.280
331.25	0.381
331.61	0.583
331.97	0.613
332.33	0.783
332.68	0.871
333.04	0.891
333.40	0.747
333.76	0.644
334.11	0.672
334.47	0.643
334.83	0.577
335.19	0.574
335.54	0.510
335.90	0.550
336.26	0.436
336.62	0.342
336.97	0.184
337.33	0.248
337.69	0.265
338.05	0.255
338.40	0.190
338.76	0.251
339.12	0.231
339.48	0.194
339.83	0.140
340.19	0.151
340.55	0.197
340.90	0.238
341.26	0.239
341.62	0.262
341.97	0.222
342.33	0.343
342.69	0.386
343.04	0.398
343.40	0.357
343.76	0.335
344.12	0.381
344.47	0.406
344.83	0.475
345.19	0.583
345.54	0.612
345.90	0.653
346.26	0.670
346.61	0.711
346.97	0.670
347.32	0.701
347.68	0.724
348.04	0.611
348.39	0.497
348.75	0.520
349.11	0.451
349.46	0.393
349.82	0.365
350.18	0.290
350.53	0.286
350.89	0.313
351.24	0.311
351.60	0.298
351.96	0.328
352.31	0.361
352.67	0.364
353.02	0.375
353.38	0.416
353.74	0.397
354.09	0.403
354.45	0.408
354.80	0.424
355.16	0.499
355.52	0.557
355.87	0.541
356.23	0.580
356.58	0.548
356.94	0.548
357.29	0.567
357.65	0.653
358.00	0.652
358.36	0.605
358.72	0.589
359.07	0.549
359.43	0.577
359.78	0.617
360.14	0.603
360.49	0.566
360.85	0.575
361.20	0.524
361.56	0.456
361.91	0.456
362.27	0.451
362.62	0.488
362.98	0.522
363.33	0.467
363.69	0.487
364.04	0.539
364.40	0.605
364.75	0.573
365.11	0.603
365.46	0.595
365.82	0.623
366.17	0.601
366.53	0.572
366.88	0.559
367.24	0.584
367.59	0.553
367.95	0.541
368.30	0.501
368.66	0.533
369.01	0.522
369.37	0.576
369.72	0.609
370.08	0.689
370.43	0.674
370.78	0.635
371.14	0.563
371.49	0.574
371.85	0.541
372.20	0.580
372.56	0.547
372.91	0.588
373.26	0.603
373.62	0.514
373.97	0.492
374.33	0.504
374.68	0.541
375.03	0.627
375.39	0.610
375.74	0.603
376.10	0.575
376.45	0.666
376.80	0.663
377.16	0.588
377.51	0.633
377.87	0.669
378.22	0.679
378.57	0.671
378.93	0.682
379.28	0.725
379.63	0.749
379.99	0.803
380.34	0.740
380.70	0.776
381.05	0.842
381.40	0.851
381.76	0.848
382.11	0.846
382.46	0.888
382.82	0.883
383.17	0.916
383.52	0.920
383.88	0.881
384.23	0.910
384.58	0.912
384.94	0.911
385.29	0.935
385.64	0.978
385.99	1.063
386.35	1.093
386.70	1.101
387.05	1.067
387.41	1.072
387.76	1.077
388.11	1.066
388.47	1.038
388.82	1.090
389.17	1.117
389.52	1.090
389.88	1.079
390.23	1.078
390.58	1.138
390.93	1.161
391.29	1.204
391.64	1.264
391.99	1.304
392.34	1.354
392.70	1.359
393.05	1.354
393.40	1.367
393.75	1.328
394.11	1.302
394.46	1.284
394.81	1.307
395.16	1.276
395.52	1.249
395.87	1.248
396.22	1.278
396.57	1.235
396.92	1.235
397.28	1.230
397.63	1.231
397.98	1.271
398.33	1.277
398.68	1.273
399.04	1.301
399.39	1.297
399.74	1.272
400.09	1.216
400.44	1.254
400.80	1.264
401.15	1.268
401.50	1.306
401.85	1.316
402.20	1.308
402.55	1.319
402.90	1.294
403.26	1.311
403.61	1.342
403.96	1.380
404.31	1.369
404.66	1.391
405.01	1.392
405.36	1.399
405.72	1.382
406.07	1.395
406.42	1.406
406.77	1.432
407.12	1.427
407.47	1.477
407.82	1.474
408.17	1.470
408.53	1.445
408.88	1.436
409.23	1.440
409.58	1.432
409.93	1.427
410.28	1.430
410.63	1.433
410.98	1.463
411.33	1.437
411.68	1.460
412.03	1.506
412.38	1.536
412.73	1.588
413.09	1.622
413.44	1.664
413.79	1.696
414.14	1.716
414.49	1.739
414.84	1.735
415.19	1.745
415.54	1.777
415.89	1.785
416.24	1.821
416.59	1.831
416.94	1.835
417.29	1.855
417.64	1.860
417.99	1.883
418.34	1.919
418.69	1.967
419.04	1.986
419.39	1.997
419.74	2.012
420.09	2.025
420.44	2.046
420.79	2.051
421.14	2.055
421.49	2.070
421.84	2.062
422.19	2.058
422.54	2.047
422.89	2.039
423.24	2.013
423.59	2.013
423.94	1.986
424.29	1.981
424.64	1.985
424.99	1.965
425.34	1.952
425.68	1.956
426.03	1.925
426.38	1.917
426.73	1.927
427.08	1.938
427.43	1.932
427.78	1.961
428.13	1.936
428.48	1.933
428.83	1.964
429.18	1.961
429.53	1.965
429.87	1.969
430.22	1.964
430.57	1.968
430.92	1.968
431.27	1.968
431.62	1.957
431.97	1.969
432.32	1.963
432.67	1.932
433.01	1.911
433.36	1.901
433.71	1.892
434.06	1.872
434.41	1.844
434.76	1.864
435.11	1.874
435.45	1.880
435.80	1.879
436.15	1.898
436.50	1.929
436.85	1.954
437.20	1.945
437.54	1.951
437.89	1.968
438.24	1.999
438.59	1.987
438.94	1.974
439.29	1.960
439.63	1.968
439.98	1.949
440.33	1.953
440.68	1.973
441.03	1.989
441.37	2.022
441.72	2.029
442.07	2.025
442.42	2.041
442.76	2.066
443.11	2.090
443.46	2.108
443.81	2.132
444.16	2.142
444.50	2.138
444.85	2.140
445.20	2.135
445.55	2.140
445.89	2.150
446.24	2.141
446.59	2.129
446.94	2.116
447.28	2.091
447.63	2.077
447.98	2.073
448.32	2.070
448.67	2.067
449.02	2.051
449.37	2.037
449.71	2.054
450.06	2.072
450.41	2.074
450.75	2.091
451.10	2.109
451.45	2.103
451.79	2.080
452.14	2.065
452.49	2.076
452.84	2.091
453.18	2.089
453.53	2.062
453.88	2.051
454.22	2.069
454.57	2.089
454.92	2.100
455.26	2.126
455.61	2.172
455.95	2.205
456.30	2.222
456.65	2.248
456.99	2.290
457.34	2.313
457.69	2.328
458.03	2.331
458.38	2.334
458.73	2.328
459.07	2.321
459.42	2.302
459.76	2.288
460.11	2.259
460.46	2.223
460.80	2.183
461.15	2.155
461.49	2.127
461.84	2.120
462.19	2.092
462.53	2.090
462.88	2.103
463.22	2.080
463.57	2.078
463.91	2.088
464.26	2.105
464.61	2.120
464.95	2.113
465.30	2.119
465.64	2.107
465.99	2.123
466.33	2.116
466.68	2.105
467.02	2.107
467.37	2.089
467.71	2.074
468.06	2.065
468.41	2.040
468.75	2.034
469.10	2.016
469.44	2.011
469.79	1.977
470.13	1.936
470.48	1.916
470.82	1.910
471.17	1.924
471.51	1.913
471.86	1.890
472.20	1.898
472.55	1.914
472.89	1.924
473.23	1.902
473.58	1.911
473.92	1.933
474.27	1.932
474.61	1.917
474.96	1.911
475.30	1.934
475.65	1.939
475.99	1.925
476.34	1.927
476.68	1.922
477.02	1.936
477.37	1.931
477.71	1.971
478.06	1.999
478.40	2.082
478.75	2.152
479.09	2.230
479.43	2.319
479.78	2.419
480.12	2.506
480.47	2.609
480.81	2.692
481.15	2.786
481.50	2.867
481.84	2.960
482.19	3.033
482.53	3.102
482.87	3.148
483.22	3.158
483.56	3.126
483.90	3.075
484.25	3.000
484.59	2.936
484.94	2.867
485.28	2.805
485.62	2.726
485.97	2.648
486.31	2.579
486.65	2.522
487.00	2.494
487.34	2.496
487.68	2.510
488.03	2.529
488.37	2.542
488.71	2.552
489.06	2.539
489.40	2.539
489.74	2.536
490.09	2.524
490.43	2.511
490.77	2.494
491.11	2.471
491.46	2.452
491.80	2.428
492.14	2.403
492.49	2.387
492.83	2.358
493.17	2.327
493.51	2.313
493.86	2.307
494.20	2.305
494.54	2.298
494.88	2.316
495.23	2.341
495.57	2.372
495.91	2.414
496.25	2.438
496.60	2.483
496.94	2.504
497.28	2.526
497.62	2.536
497.97	2.556
498.31	2.591
498.65	2.608
498.99	2.622
499.33	2.659
499.68	2.689
500.02	2.726
500.36	2.754
500.70	2.797
501.04	2.823
501.39	2.862
501.73	2.916
502.07	2.984
502.41	3.047
502.75	3.109
503.09	3.148
503.44	3.209
503.78	3.249
504.12	3.295
504.46	3.365
504.80	3.451
505.14	3.536
505.49	3.602
505.83	3.658
506.17	3.732
506.51	3.803
506.85	3.886
507.19	3.952
507.53	4.025
507.87	4.113
508.22	4.177
508.56	4.235
508.90	4.287
509.24	4.359
509.58	4.413
509.92	4.477
510.26	4.540
510.60	4.603
510.94	4.667
511.28	4.733
511.63	4.807
511.97	4.895
512.31	4.978
512.65	5.075
512.99	5.170
513.33	5.310
513.67	5.434
514.01	5.575
514.35	5.711
514.69	5.855
515.03	6.004
515.37	6.147
515.71	6.273
516.05	6.391
516.39	6.486
516.73	6.585
517.07	6.674
517.41	6.743
517.75	6.819
518.09	6.890
518.43	6.941
518.77	6.975
519.11	7.027
519.45	7.080
519.79	7.158
520.13	7.253
520.47	7.362
520.81	7.459
521.15	7.584
521.49	7.686
521.83	7.805
522.17	7.929
522.51	8.095
522.85	8.245
523.19	8.430
523.53	8.612
523.87	8.810
524.21	8.974
524.55	9.153
524.89	9.311
525.23	9.474
525.57	9.599
525.91	9.735
526.25	9.840
526.58	9.937
526.92	10.016
527.26	10.072
527.60	10.103
527.94	10.139
528.28	10.150
528.62	10.155
528.96	10.159
529.30	10.169
529.64	10.163
529.97	10.168
530.31	10.169
530.65	10.166
530.99	10.188
531.33	10.226
531.67	10.250
532.01	10.279
532.35	10.308
532.68	10.308
533.02	10.334
533.36	10.344
533.70	10.348
534.04	10.353
534.38	10.365
534.71	10.365
535.05	10.351
535.39	10.374
535.73	10.394
536.07	10.429
536.41	10.475
536.74	10.497
537.08	10.531
537.42	10.601
537.76	10.654
538.10	10.705
538.43	10.758
538.77	10.810
539.11	10.830
539.45	10.856
539.79	10.887
540.12	10.910
540.46	10.938
540.80	10.950
541.14	10.931
541.47	10.901
541.81	10.879
542.15	10.866
542.49	10.848
542.82	10.839
543.16	10.829
543.50	10.794
543.84	10.781
544.17	10.749
544.51	10.749
544.85	10.720
545.18	10.733
545.52	10.731
545.86	10.708
546.20	10.690
546.53	10.681
546.87	10.659
547.21	10.653
547.54	10.615
547.88	10.594
548.22	10.564
548.55	10.570
548.89	10.571
549.23	10.546
549.56	10.546
549.90	10.592
550.24	10.597
550.57	10.591
550.91	10.568
551.25	10.584
551.58	10.580
551.92	10.576
552.26	10.564
552.59	10.557
552.93	10.568
553.27	10.571
553.60	10.540
553.94	10.501
554.27	10.499
554.61	10.523
554.95	10.484
555.28	10.467
555.62	10.427
555.95	10.423
556.29	10.406
556.63	10.368
556.96	10.338
557.30	10.295
557.63	10.261
557.97	10.232
558.31	10.174
558.64	10.150
558.98	10.121
559.31	10.130
559.65	10.090
559.98	10.055
560.32	10.023
560.65	9.970
560.99	9.936
561.33	9.921
561.66	9.879
562.00	9.861
562.33	9.828
562.67	9.789
563.00	9.733
563.34	9.707
563.67	9.669
564.01	9.649
564.34	9.609
564.68	9.566
565.01	9.506
565.35	9.480
565.68	9.416
566.02	9.357
566.35	9.306
566.69	9.244
567.02	9.197
567.36	9.131
567.69	9.067
568.03	9.036
568.36	8.984
568.69	8.939
569.03	8.863
569.36	8.816
569.70	8.767
570.03	8.731
570.37	8.693
570.70	8.643
571.04	8.594
571.37	8.542
571.70	8.473
572.04	8.417
572.37	8.370
572.71	8.306
573.04	8.245
573.37	8.208
573.71	8.150
574.04	8.083
574.38	8.018
574.71	7.964
575.04	7.909
575.38	7.852
575.71	7.799
576.05	7.733
576.38	7.727
576.71	7.674
577.05	7.616
577.38	7.566
577.71	7.533
578.05	7.474
578.38	7.422
578.71	7.361
579.05	7.318
579.38	7.286
579.71	7.252
580.05	7.183
580.38	7.144
580.71	7.082
581.05	7.034
581.38	6.971
581.71	6.937
582.05	6.892
582.38	6.869
582.71	6.830
583.04	6.785
583.38	6.744
583.71	6.719
584.04	6.697
584.38	6.694
584.71	6.690
585.04	6.691
585.37	6.675
585.71	6.692
586.04	6.682
586.37	6.696
586.70	6.687
587.04	6.700
587.37	6.693
587.70	6.693
588.03	6.679
588.37	6.667
588.70	6.661
589.03	6.646
589.36	6.625
589.69	6.592
590.03	6.553
590.36	6.532
590.69	6.480
591.02	6.438
591.35	6.397
591.69	6.377
592.02	6.338
592.35	6.325
592.68	6.328
593.01	6.285
593.35	6.295
593.68	6.282
594.01	6.260
594.34	6.244
594.67	6.241
595.00	6.219
595.34	6.184
595.67	6.155
596.00	6.121
596.33	6.067
596.66	6.032
596.99	5.981
597.32	5.940
597.65	5.908
597.99	5.874
598.32	5.821
598.65	5.786
598.98	5.734
599.31	5.719
599.64	5.682
599.97	5.654
600.30	5.632
600.63	5.647
600.96	5.654
601.30	5.650
601.63	5.662
601.96	5.678
602.29	5.669
602.62	5.678
602.95	5.664
603.28	5.652
603.61	5.629
603.94	5.595
604.27	5.570
604.60	5.524
604.93	5.491
605.26	5.435
605.59	5.377
605.92	5.373
606.25	5.338
606.58	5.310
606.91	5.275
607.24	5.267
607.57	5.266
607.90	5.216
608.23	5.158
608.56	5.124
608.89	5.081
609.22	5.055
609.55	4.970
609.88	4.917
610.21	4.850
610.54	4.791
610.87	4.710
611.20	4.653
611.53	4.584
611.86	4.565
612.19	4.490
612.52	4.449
612.85	4.382
613.18	4.375
613.51	4.311
613.84	4.272
614.17	4.234
614.49	4.244
614.82	4.181
615.15	4.176
615.48	4.139
615.81	4.132
616.14	4.098
616.47	4.065
616.80	4.010
617.13	3.993
617.46	3.935
617.78	3.900
618.11	3.864
618.44	3.843
618.77	3.775
619.10	3.744
619.43	3.692
619.76	3.664
620.09	3.677
620.41	3.653
620.74	3.692
621.07	3.723
621.40	3.732
621.73	3.742
622.06	3.768
622.38	3.802
622.71	3.831
623.04	3.874
623.37	3.919
623.70	3.932
624.02	3.991
624.35	3.999
624.68	4.006
625.01	4.020
625.34	4.011
625.66	4.028
625.99	4.024
626.32	4.015
626.65	4.029
626.98	4.024
627.30	3.999
627.63	3.967
627.96	3.905
628.29	3.879
628.61	3.848
628.94	3.813
629.27	3.790
629.60	3.733
629.92	3.709
630.25	3.641
630.58	3.590
630.91	3.556
631.23	3.510
631.56	3.523
631.89	3.479
632.21	3.451
632.54	3.401
632.87	3.347
633.19	3.337
633.52	3.293
633.85	3.254
634.18	3.222
634.50	3.156
634.83	3.127
635.16	3.046
635.48	2.971
635.81	2.901
636.14	2.854
636.46	2.808
636.79	2.734
637.11	2.641
637.44	2.548
637.77	2.470
638.09	2.433
638.42	2.334
638.75	2.277
639.07	2.254
639.40	2.256
639.73	2.182
640.05	2.107
640.38	2.086
640.70	2.003
641.03	1.960
641.36	1.918
641.68	1.891
642.01	1.883
642.33	1.844
642.66	1.806
642.98	1.719
643.31	1.747
643.64	1.736
643.96	1.702
644.29	1.720
644.61	1.732
644.94	1.722
645.26	1.706
645.59	1.721
645.91	1.722
646.24	1.749
646.56	1.745
646.89	1.715
647.22	1.714
647.54	1.725
647.87	1.756
648.19	1.752
648.52	1.744
648.84	1.738
649.17	1.726
649.49	1.706
649.82	1.680
650.14	1.693
650.47	1.683
650.79	1.693
651.11	1.702
651.44	1.715
651.76	1.692
652.09	1.732
652.41	1.754
652.74	1.728
653.06	1.756
653.39	1.797
653.71	1.812
654.04	1.831
654.36	1.828
