OOIBase32 Version 2.0.0.6 Data File
++++++++++++++++++++++++++++++++++++
Date: 01-23-2012, 23:12:00
User: Valued Ocean Optics Customer
Spectrometer Serial Number: USB2E2917
Spectrometer Channel: Master
Integration Time (msec): 5
Spectra Averaged: 10
Boxcar Smoothing: 5
Correct for Electrical Dark: Enabled
Time Normalized: Disabled
Dual-beam Reference: Disabled
Reference Channel: Master
Temperature: Not acquired
Spectrometer Type: S2000
ADC Type: USB2000
Number of Pixels in File: 2048
Graph Title: 
>>>>>Begin Spectral Data<<<<<
180.30	0.000
180.67	0.000
181.03	-141.429
181.40	84.311
181.77	-10062.003
182.14	85.110
182.51	-787.169
182.88	-6.325
183.25	-50.055
183.62	53.873
183.99	327.356
184.36	-155.949
184.73	385.642
185.10	77.159
185.46	160.037
185.83	120.480
186.20	782.110
186.57	105.996
186.94	46.830
187.31	43.472
187.68	188.824
188.05	91.535
188.42	132.400
188.78	238.935
189.15	829.222
189.52	-223.281
189.89	-22.861
190.26	-22.470
190.63	-13.091
191.00	24.762
191.37	18.099
191.73	34.619
192.10	28.992
192.47	27.913
192.84	20.760
193.21	36.218
193.58	37.501
193.94	21.014
194.31	25.648
194.68	28.666
195.05	11.882
195.42	15.004
195.79	-11.688
196.15	-2.469
196.52	0.258
196.89	3.428
197.26	-39.232
197.63	-29.157
198.00	-11.604
198.36	-23.041
198.73	-47.704
199.10	-44.231
199.47	-32.460
199.84	-23.636
200.20	-36.092
200.57	-43.001
200.94	-42.085
201.31	-34.424
201.68	-42.581
202.04	-39.513
202.41	-35.792
202.78	-40.505
203.15	-50.844
203.51	-47.019
203.88	-58.834
204.25	-49.634
204.62	-60.258
204.98	-73.021
205.35	-74.842
205.72	-62.845
206.09	-65.758
206.46	-117.883
206.82	-84.821
207.19	-63.684
207.56	-119.828
207.92	-105.072
208.29	-119.840
208.66	-57.230
209.03	-38.197
209.39	-2.140
209.76	-26.186
210.13	-49.470
210.50	-37.440
210.86	-31.543
211.23	-41.840
211.60	-23.459
211.96	-8.741
212.33	1.247
212.70	-15.533
213.07	-22.571
213.43	-52.077
213.80	-26.585
214.17	-4.917
214.53	2.195
214.90	2.398
215.27	14.026
215.63	20.707
216.00	19.370
216.37	18.526
216.74	23.347
217.10	27.257
217.47	23.522
217.84	23.351
218.20	27.579
218.57	32.747
218.94	35.612
219.30	25.501
219.67	20.117
220.04	18.098
220.40	13.675
220.77	7.147
221.13	6.796
221.50	6.629
221.87	9.219
222.23	0.428
222.60	-10.399
222.97	-12.910
223.33	-9.530
223.70	-9.795
224.07	-11.008
224.43	-11.019
224.80	-9.789
225.16	-11.864
225.53	-10.007
225.90	-13.930
226.26	-10.155
226.63	-5.921
226.99	-4.817
227.36	-3.362
227.73	-0.369
228.09	-0.889
228.46	1.244
228.82	1.933
229.19	2.644
229.56	2.194
229.92	4.628
230.29	4.638
230.65	2.545
231.02	-0.072
231.38	-4.339
231.75	-7.718
232.12	-8.648
232.48	-10.837
232.85	-11.376
233.21	-10.070
233.58	-10.508
233.94	-9.400
234.31	-9.837
234.68	-8.554
235.04	-7.800
235.41	-5.476
235.77	-2.773
236.14	-0.870
236.50	0.793
236.87	1.607
237.23	1.702
237.60	0.785
237.96	0.249
238.33	-1.367
238.69	-1.929
239.06	-1.601
239.42	-1.171
239.79	-1.806
240.15	-1.418
240.52	-1.419
240.88	-1.031
241.25	-1.309
241.61	-0.838
241.98	-1.016
242.34	-0.405
242.71	0.120
243.07	0.142
243.44	-0.277
243.80	-0.288
244.17	-0.383
244.53	-0.754
244.90	-1.019
245.26	-1.005
245.63	-0.982
245.99	-0.918
246.36	-0.936
246.72	-0.837
247.09	-1.017
247.45	-0.547
247.81	-0.061
248.18	-0.141
248.54	0.110
248.91	-0.119
249.27	-0.054
249.64	0.278
250.00	0.343
250.36	0.322
250.73	-0.495
251.09	-0.033
251.46	-0.397
251.82	-1.085
252.19	-1.165
252.55	-1.513
252.91	-1.109
253.28	-1.034
253.64	-2.153
254.01	-2.200
254.37	-1.981
254.73	-1.204
255.10	-0.985
255.46	-0.541
255.83	-0.289
256.19	-0.270
256.55	-0.138
256.92	-0.057
257.28	-0.092
257.65	0.281
258.01	0.284
258.37	0.248
258.74	0.022
259.10	-0.243
259.46	-0.547
259.83	-0.672
260.19	-0.531
260.55	-0.496
260.92	-0.675
261.28	-0.380
261.64	-0.341
262.01	-0.123
262.37	-0.104
262.73	0.073
263.10	0.326
263.46	0.786
263.82	0.811
264.19	0.360
264.55	0.098
264.91	0.117
265.28	-0.328
265.64	-0.257
266.00	-0.403
266.37	-0.347
266.73	-0.459
267.09	-0.392
267.46	-0.594
267.82	-0.730
268.18	-0.431
268.54	-0.225
268.91	-0.302
269.27	-0.378
269.63	-0.471
270.00	-0.494
270.36	-0.668
270.72	-0.540
271.08	-0.723
271.45	-0.751
271.81	-0.592
272.17	-0.639
272.53	-0.638
272.90	-0.380
273.26	-0.176
273.62	-0.284
273.98	-0.468
274.35	-0.383
274.71	-0.354
275.07	-0.236
275.43	-0.359
275.80	-0.393
276.16	-0.514
276.52	-0.647
276.88	-0.854
277.25	-1.098
277.61	-1.204
277.97	-1.240
278.33	-1.190
278.69	-1.293
279.06	-1.145
279.42	-1.003
279.78	-1.077
280.14	-0.790
280.50	-0.644
280.87	-0.651
281.23	-0.463
281.59	-0.347
281.95	-0.360
282.31	-0.328
282.68	-0.368
283.04	-0.577
283.40	-0.533
283.76	-0.359
284.12	-0.448
284.48	-0.401
284.85	-0.254
285.21	-0.324
285.57	-0.460
285.93	-0.284
286.29	-0.347
286.65	-0.304
287.02	0.035
287.38	-0.003
287.74	-0.109
288.10	-0.082
288.46	-0.103
288.82	-0.172
289.18	-0.114
289.54	-0.040
289.91	-0.145
290.27	-0.087
290.63	0.011
290.99	-0.155
291.35	-0.159
291.71	-0.023
292.07	-0.092
292.43	-0.142
292.79	-0.161
293.16	-0.268
293.52	-0.015
293.88	0.213
294.24	0.253
294.60	0.217
294.96	0.193
295.32	0.311
295.68	0.310
296.04	0.310
296.40	0.276
296.76	0.345
297.12	0.389
297.49	0.286
297.85	0.167
298.21	0.126
298.57	0.017
298.93	-0.035
299.29	-0.173
299.65	-0.324
300.01	-0.434
300.37	-0.448
300.73	-0.442
301.09	-0.316
301.45	-0.229
301.81	-0.027
302.17	0.096
302.53	0.145
302.89	0.079
303.25	0.144
303.61	0.225
303.97	0.220
304.33	0.301
304.69	0.287
305.05	0.213
305.41	0.154
305.77	-0.013
306.13	-0.190
306.49	-0.153
306.85	-0.003
307.21	0.021
307.57	0.023
307.93	0.139
308.29	0.156
308.65	0.138
309.01	0.114
309.37	0.059
309.73	0.055
310.09	0.251
310.45	0.293
310.81	0.276
311.17	0.172
311.53	0.113
311.89	0.075
312.25	0.026
312.61	-0.021
312.96	0.045
313.32	0.181
313.68	0.155
314.04	0.043
314.40	0.014
314.76	-0.009
315.12	0.014
315.48	0.049
315.84	0.027
316.20	0.062
316.56	0.066
316.92	-0.048
317.27	-0.242
317.63	-0.226
317.99	-0.279
318.35	-0.344
318.71	-0.313
319.07	-0.228
319.43	-0.172
319.79	-0.070
320.15	-0.108
320.50	-0.063
320.86	0.055
321.22	0.186
321.58	0.065
321.94	0.015
322.30	-0.067
322.66	-0.142
323.01	-0.320
323.37	-0.417
323.73	-0.492
324.09	-0.563
324.45	-0.582
324.81	-0.671
325.17	-0.677
325.52	-0.626
325.88	-0.633
326.24	-0.425
326.60	-0.349
326.96	-0.279
327.31	-0.234
327.67	-0.307
328.03	-0.213
328.39	-0.275
328.75	-0.208
329.11	-0.162
329.46	-0.121
329.82	0.008
330.18	-0.057
330.54	-0.133
330.90	-0.175
331.25	-0.188
331.61	-0.050
331.97	-0.119
332.33	-0.059
332.68	-0.047
333.04	-0.058
333.40	-0.149
333.76	-0.198
334.11	-0.184
334.47	-0.113
334.83	-0.054
335.19	-0.079
335.54	-0.114
335.90	-0.078
336.26	-0.062
336.62	-0.059
336.97	-0.187
337.33	-0.141
337.69	-0.038
338.05	-0.131
338.40	-0.197
338.76	-0.138
339.12	-0.020
339.48	0.023
339.83	0.007
340.19	-0.064
340.55	-0.002
340.90	0.065
341.26	0.053
341.62	-0.103
341.97	-0.088
342.33	-0.048
342.69	-0.026
343.04	-0.051
343.40	-0.146
343.76	-0.147
344.12	-0.057
344.47	-0.102
344.83	-0.064
345.19	0.063
345.54	0.150
345.90	0.289
346.26	0.386
346.61	0.401
346.97	0.412
347.32	0.477
347.68	0.533
348.04	0.529
348.39	0.514
348.75	0.521
349.11	0.475
349.46	0.435
349.82	0.423
350.18	0.372
350.53	0.376
350.89	0.372
351.24	0.407
351.60	0.433
351.96	0.498
352.31	0.486
352.67	0.489
353.02	0.477
353.38	0.511
353.74	0.544
354.09	0.505
354.45	0.565
354.80	0.610
355.16	0.604
355.52	0.655
355.87	0.649
356.23	0.735
356.58	0.801
356.94	0.856
357.29	0.938
357.65	0.916
358.00	1.012
358.36	1.050
358.72	1.041
359.07	1.155
359.43	1.151
359.78	1.196
360.14	1.216
360.49	1.220
360.85	1.231
361.20	1.177
361.56	1.202
361.91	1.221
362.27	1.193
362.62	1.262
362.98	1.276
363.33	1.285
363.69	1.263
364.04	1.331
364.40	1.347
364.75	1.391
365.11	1.444
365.46	1.449
365.82	1.447
366.17	1.478
366.53	1.492
366.88	1.459
367.24	1.491
367.59	1.523
367.95	1.511
368.30	1.553
368.66	1.609
369.01	1.651
369.37	1.705
369.72	1.777
370.08	1.824
370.43	1.859
370.78	1.889
371.14	1.882
371.49	1.942
371.85	1.937
372.20	1.935
372.56	1.920
372.91	1.950
373.26	1.964
373.62	1.934
373.97	1.942
374.33	1.936
374.68	1.973
375.03	2.036
375.39	2.028
375.74	2.054
376.10	2.102
376.45	2.143
376.80	2.196
377.16	2.216
377.51	2.293
377.87	2.337
378.22	2.321
378.57	2.359
378.93	2.402
379.28	2.458
379.63	2.514
379.99	2.562
380.34	2.591
380.70	2.593
381.05	2.626
381.40	2.658
381.76	2.706
382.11	2.790
382.46	2.808
382.82	2.813
383.17	2.815
383.52	2.831
383.88	2.846
384.23	2.899
384.58	2.930
384.94	2.975
385.29	3.005
385.64	3.002
385.99	3.041
386.35	3.104
386.70	3.153
387.05	3.193
387.41	3.234
387.76	3.260
388.11	3.323
388.47	3.344
388.82	3.417
389.17	3.462
389.52	3.562
389.88	3.634
390.23	3.660
390.58	3.727
390.93	3.782
391.29	3.837
391.64	3.908
391.99	3.981
392.34	4.078
392.70	4.085
393.05	4.090
393.40	4.107
393.75	4.094
394.11	4.124
394.46	4.136
394.81	4.192
395.16	4.212
395.52	4.237
395.87	4.220
396.22	4.217
396.57	4.232
396.92	4.253
397.28	4.234
397.63	4.231
397.98	4.254
398.33	4.250
398.68	4.265
399.04	4.300
399.39	4.294
399.74	4.290
400.09	4.290
400.44	4.319
400.80	4.359
401.15	4.367
401.50	4.436
401.85	4.444
402.20	4.471
402.55	4.496
402.90	4.476
403.26	4.498
403.61	4.489
403.96	4.508
404.31	4.504
404.66	4.511
405.01	4.538
405.36	4.534
405.72	4.551
406.07	4.541
406.42	4.517
406.77	4.531
407.12	4.557
407.47	4.581
407.82	4.554
408.17	4.569
408.53	4.560
408.88	4.543
409.23	4.531
409.58	4.480
409.93	4.528
410.28	4.531
410.63	4.513
410.98	4.478
411.33	4.483
411.68	4.522
412.03	4.551
412.38	4.527
412.73	4.552
413.09	4.562
413.44	4.614
413.79	4.615
414.14	4.626
414.49	4.664
414.84	4.704
415.19	4.709
415.54	4.737
415.89	4.733
416.24	4.790
416.59	4.816
416.94	4.840
417.29	4.861
417.64	4.855
417.99	4.885
418.34	4.908
418.69	4.908
419.04	4.911
419.39	4.910
419.74	4.919
420.09	4.923
420.44	4.930
420.79	4.917
421.14	4.904
421.49	4.931
421.84	4.913
422.19	4.914
422.54	4.913
422.89	4.912
423.24	4.908
423.59	4.899
423.94	4.867
424.29	4.852
424.64	4.863
424.99	4.864
425.34	4.823
425.68	4.811
426.03	4.786
426.38	4.801
426.73	4.827
427.08	4.825
427.43	4.840
427.78	4.874
428.13	4.852
428.48	4.833
428.83	4.837
429.18	4.851
429.53	4.865
429.87	4.847
430.22	4.799
430.57	4.797
430.92	4.780
431.27	4.774
431.62	4.745
431.97	4.738
432.32	4.739
432.67	4.716
433.01	4.708
433.36	4.699
433.71	4.700
434.06	4.709
434.41	4.679
434.76	4.715
435.11	4.725
435.45	4.738
435.80	4.758
436.15	4.784
436.50	4.823
436.85	4.832
437.20	4.838
437.54	4.853
437.89	4.865
438.24	4.889
438.59	4.884
438.94	4.867
439.29	4.876
439.63	4.896
439.98	4.897
440.33	4.900
440.68	4.945
441.03	4.981
441.37	5.029
441.72	5.073
442.07	5.110
442.42	5.140
442.76	5.200
443.11	5.238
443.46	5.279
443.81	5.304
444.16	5.339
444.50	5.357
444.85	5.386
445.20	5.396
445.55	5.426
445.89	5.442
446.24	5.463
446.59	5.462
446.94	5.484
447.28	5.490
447.63	5.522
447.98	5.545
448.32	5.571
448.67	5.577
449.02	5.593
449.37	5.589
449.71	5.623
450.06	5.647
450.41	5.686
450.75	5.722
451.10	5.731
451.45	5.748
451.79	5.745
452.14	5.760
452.49	5.783
452.84	5.803
453.18	5.824
453.53	5.827
453.88	5.832
454.22	5.850
454.57	5.859
454.92	5.886
455.26	5.913
455.61	5.970
455.95	5.993
456.30	6.018
456.65	6.034
456.99	6.067
457.34	6.107
457.69	6.131
458.03	6.139
458.38	6.136
458.73	6.156
459.07	6.149
459.42	6.129
459.76	6.106
460.11	6.077
460.46	6.056
460.80	6.038
461.15	6.015
461.49	5.995
461.84	5.981
462.19	5.977
462.53	5.963
462.88	5.964
463.22	5.972
463.57	5.980
463.91	5.993
464.26	6.025
464.61	6.015
464.95	5.991
465.30	5.985
465.64	5.993
465.99	6.006
466.33	6.004
466.68	6.011
467.02	6.002
467.37	5.983
467.71	5.968
468.06	5.949
468.41	5.946
468.75	5.954
469.10	5.947
469.44	5.923
469.79	5.895
470.13	5.873
470.48	5.837
470.82	5.814
471.17	5.831
471.51	5.836
471.86	5.830
472.20	5.814
472.55	5.802
472.89	5.814
473.23	5.812
473.58	5.817
473.92	5.823
474.27	5.827
474.61	5.850
474.96	5.850
475.30	5.863
475.65	5.861
475.99	5.876
476.34	5.893
476.68	5.895
477.02	5.919
477.37	5.928
477.71	5.964
478.06	6.021
478.40	6.086
478.75	6.162
479.09	6.267
479.43	6.376
479.78	6.506
480.12	6.654
480.47	6.803
480.81	6.954
481.15	7.103
481.50	7.255
481.84	7.411
482.19	7.570
482.53	7.712
482.87	7.793
483.22	7.813
483.56	7.754
483.90	7.638
484.25	7.504
484.59	7.346
484.94	7.207
485.28	7.074
485.62	6.936
485.97	6.775
486.31	6.642
486.65	6.559
487.00	6.536
487.34	6.564
487.68	6.629
488.03	6.705
488.37	6.792
488.71	6.856
489.06	6.888
489.40	6.916
489.74	6.946
490.09	6.969
490.43	6.985
490.77	6.990
491.11	6.992
491.46	7.010
491.80	7.015
492.14	7.025
492.49	7.050
492.83	7.067
493.17	7.087
493.51	7.120
493.86	7.161
494.20	7.209
494.54	7.280
494.88	7.364
495.23	7.428
495.57	7.506
495.91	7.592
496.25	7.683
496.60	7.773
496.94	7.839
497.28	7.909
497.62	7.986
497.97	8.070
498.31	8.153
498.65	8.246
498.99	8.344
499.33	8.458
499.68	8.569
500.02	8.653
500.36	8.744
500.70	8.860
501.04	8.971
501.39	9.084
501.73	9.204
502.07	9.329
502.41	9.456
502.75	9.583
503.09	9.697
503.44	9.818
503.78	9.946
504.12	10.068
504.46	10.211
504.80	10.370
505.14	10.509
505.49	10.644
505.83	10.776
506.17	10.903
506.51	11.041
506.85	11.170
507.19	11.312
507.53	11.439
507.87	11.586
508.22	11.710
508.56	11.841
508.90	11.979
509.24	12.116
509.58	12.268
509.92	12.434
510.26	12.566
510.60	12.719
510.94	12.867
511.28	13.026
511.63	13.197
511.97	13.351
512.31	13.510
512.65	13.672
512.99	13.852
513.33	14.057
513.67	14.241
514.01	14.457
514.35	14.656
514.69	14.842
515.03	15.033
515.37	15.230
515.71	15.423
516.05	15.583
516.39	15.737
516.73	15.883
517.07	15.987
517.41	16.094
517.75	16.206
518.09	16.329
518.43	16.443
518.77	16.550
519.11	16.635
519.45	16.741
519.79	16.884
520.13	17.016
520.47	17.160
520.81	17.316
521.15	17.491
521.49	17.637
521.83	17.793
522.17	17.921
522.51	18.116
522.85	18.316
523.19	18.534
523.53	18.749
523.87	18.986
524.21	19.228
524.55	19.465
524.89	19.668
525.23	19.887
525.57	20.075
525.91	20.270
526.25	20.419
526.58	20.574
526.92	20.677
527.26	20.743
527.60	20.773
527.94	20.796
528.28	20.798
528.62	20.787
528.96	20.753
529.30	20.723
529.64	20.678
529.97	20.634
530.31	20.569
530.65	20.548
530.99	20.538
531.33	20.584
531.67	20.589
532.01	20.609
532.35	20.639
532.68	20.675
533.02	20.690
533.36	20.698
533.70	20.721
534.04	20.728
534.38	20.706
534.71	20.720
535.05	20.711
535.39	20.734
535.73	20.740
536.07	20.757
536.41	20.745
536.74	20.769
537.08	20.808
537.42	20.837
537.76	20.871
538.10	20.954
538.43	21.023
538.77	21.092
539.11	21.169
539.45	21.229
539.79	21.273
540.12	21.330
540.46	21.357
540.80	21.349
541.14	21.333
541.47	21.327
541.81	21.299
542.15	21.256
542.49	21.195
542.82	21.119
543.16	21.054
543.50	21.018
543.84	20.946
544.17	20.914
544.51	20.927
544.85	20.913
545.18	20.922
545.52	20.918
545.86	20.920
546.20	20.940
546.53	20.957
546.87	20.972
547.21	20.961
547.54	20.973
547.88	20.958
548.22	20.947
548.55	20.941
548.89	20.936
549.23	20.939
549.56	20.932
549.90	20.952
550.24	20.936
550.57	20.923
550.91	20.910
551.25	20.937
551.58	20.971
551.92	20.972
552.26	20.988
552.59	20.989
552.93	20.968
553.27	20.956
553.60	20.941
553.94	20.936
554.27	20.936
554.61	20.949
554.95	20.912
555.28	20.859
555.62	20.853
555.95	20.850
556.29	20.850
556.63	20.822
556.96	20.815
557.30	20.754
557.63	20.700
557.97	20.673
558.31	20.606
558.64	20.564
558.98	20.540
559.31	20.499
559.65	20.421
559.98	20.350
560.32	20.316
560.65	20.264
560.99	20.215
561.33	20.179
561.66	20.118
562.00	20.064
562.33	20.032
562.67	19.997
563.00	19.934
563.34	19.897
563.67	19.840
564.01	19.775
564.34	19.717
564.68	19.675
565.01	19.617
565.35	19.539
565.68	19.485
566.02	19.392
566.35	19.312
566.69	19.218
567.02	19.180
567.36	19.084
567.69	19.009
568.03	18.948
568.36	18.857
568.69	18.783
569.03	18.722
569.36	18.646
569.70	18.581
570.03	18.516
570.37	18.437
570.70	18.349
571.04	18.304
571.37	18.259
571.70	18.187
572.04	18.122
572.37	18.042
572.71	17.978
573.04	17.934
573.37	17.878
573.71	17.820
574.04	17.777
574.38	17.721
574.71	17.656
575.04	17.604
575.38	17.536
575.71	17.485
576.05	17.440
576.38	17.420
576.71	17.354
577.05	17.305
577.38	17.245
577.71	17.215
578.05	17.145
578.38	17.067
578.71	16.988
579.05	16.905
579.38	16.846
579.71	16.783
580.05	16.696
580.38	16.631
580.71	16.560
581.05	16.509
581.38	16.446
581.71	16.407
582.05	16.381
582.38	16.325
582.71	16.303
583.04	16.284
583.38	16.235
583.71	16.188
584.04	16.181
584.38	16.166
584.71	16.131
585.04	16.113
585.37	16.086
585.71	16.072
586.04	16.044
586.37	16.042
586.70	16.020
587.04	16.020
587.37	15.994
587.70	15.967
588.03	15.930
588.37	15.895
588.70	15.868
589.03	15.830
589.36	15.780
589.69	15.732
590.03	15.712
590.36	15.664
590.69	15.593
591.02	15.561
591.35	15.511
591.69	15.474
592.02	15.438
592.35	15.410
592.68	15.383
593.01	15.351
593.35	15.331
593.68	15.288
594.01	15.249
594.34	15.252
594.67	15.235
595.00	15.204
595.34	15.181
595.67	15.127
596.00	15.067
596.33	14.995
596.66	14.981
596.99	14.957
597.32	14.893
597.65	14.874
597.99	14.827
598.32	14.758
598.65	14.710
598.98	14.652
599.31	14.629
599.64	14.634
599.97	14.626
600.30	14.593
600.63	14.551
600.96	14.553
601.30	14.494
601.63	14.493
601.96	14.493
602.29	14.472
602.62	14.467
602.95	14.472
603.28	14.410
603.61	14.376
603.94	14.339
604.27	14.330
604.60	14.295
604.93	14.292
605.26	14.224
605.59	14.193
605.92	14.180
606.25	14.130
606.58	14.083
606.91	14.051
607.24	14.055
607.57	14.031
607.90	13.983
608.23	13.920
608.56	13.847
608.89	13.809
609.22	13.763
609.55	13.682
609.88	13.629
610.21	13.559
610.54	13.517
610.87	13.422
611.20	13.316
611.53	13.252
611.86	13.202
612.19	13.174
612.52	13.129
612.85	13.118
613.18	13.101
613.51	13.030
613.84	12.969
614.17	12.913
614.49	12.938
614.82	12.924
615.15	12.906
615.48	12.886
615.81	12.820
616.14	12.802
616.47	12.672
616.80	12.599
617.13	12.573
617.46	12.528
617.78	12.492
618.11	12.410
618.44	12.387
618.77	12.318
619.10	12.261
619.43	12.257
619.76	12.194
620.09	12.221
620.41	12.218
620.74	12.201
621.07	12.210
621.40	12.237
621.73	12.251
622.06	12.256
622.38	12.272
622.71	12.274
623.04	12.284
623.37	12.309
623.70	12.283
624.02	12.284
624.35	12.347
624.68	12.339
625.01	12.317
625.34	12.324
625.66	12.301
625.99	12.321
626.32	12.333
626.65	12.328
626.98	12.325
627.30	12.345
627.63	12.355
627.96	12.287
628.29	12.270
628.61	12.260
628.94	12.222
629.27	12.171
629.60	12.106
629.92	12.074
630.25	12.016
630.58	11.982
630.91	11.957
631.23	11.906
631.56	11.899
631.89	11.850
632.21	11.800
632.54	11.745
632.87	11.715
633.19	11.668
633.52	11.584
633.85	11.527
634.18	11.420
634.50	11.318
634.83	11.224
635.16	11.135
635.48	11.036
635.81	10.925
636.14	10.806
636.46	10.707
636.79	10.583
637.11	10.499
637.44	10.353
637.77	10.289
638.09	10.201
638.42	10.072
638.75	9.922
639.07	9.839
639.40	9.705
639.73	9.583
640.05	9.463
640.38	9.390
640.70	9.262
641.03	9.190
641.36	9.093
641.68	8.951
642.01	8.901
642.33	8.832
642.66	8.717
642.98	8.659
643.31	8.627
643.64	8.582
643.96	8.531
