OOIBase32 Version 2.0.0.6 Data File
++++++++++++++++++++++++++++++++++++
Date: 01-23-2012, 23:14:45
User: Valued Ocean Optics Customer
Spectrometer Serial Number: USB2E2917
Spectrometer Channel: Master
Integration Time (msec): 5
Spectra Averaged: 10
Boxcar Smoothing: 5
Correct for Electrical Dark: Enabled
Time Normalized: Disabled
Dual-beam Reference: Disabled
Reference Channel: Master
Temperature: Not acquired
Spectrometer Type: S2000
ADC Type: USB2000
Number of Pixels in File: 2048
Graph Title: 
>>>>>Begin Spectral Data<<<<<
180.30	0.000
180.67	0.000
181.03	71.967
181.40	286.121
181.77	-6904.817
182.14	17.921
182.51	-111.004
182.88	116.308
183.25	-6.978
183.62	14.673
183.99	140.616
184.36	-149.330
184.73	381.779
185.10	98.698
185.46	-58.379
185.83	-509.558
186.20	654.305
186.57	153.265
186.94	-39.607
187.31	41.705
187.68	73.061
188.05	-16.419
188.42	19.439
188.78	47.435
189.15	-140.850
189.52	114.218
189.89	89.400
190.26	75.516
190.63	39.841
191.00	31.186
191.37	25.004
191.73	34.724
192.10	24.746
192.47	29.547
192.84	34.929
193.21	38.039
193.58	28.922
193.94	19.774
194.31	20.917
194.68	22.740
195.05	16.551
195.42	21.280
195.79	14.405
196.15	10.030
196.52	3.515
196.89	5.011
197.26	-0.020
197.63	17.429
198.00	29.044
198.36	22.339
198.73	5.465
199.10	6.842
199.47	12.240
199.84	9.701
200.20	17.647
200.57	22.017
200.94	11.202
201.31	8.771
201.68	5.119
202.04	3.752
202.41	6.242
202.78	10.287
203.15	11.219
203.51	-5.398
203.88	-18.031
204.25	-24.343
204.62	-30.816
204.98	-42.660
205.35	-44.849
205.72	-44.139
206.09	-49.516
206.46	-92.798
206.82	-61.337
207.19	-64.592
207.56	-84.754
207.92	-43.947
208.29	-30.060
208.66	4.135
209.03	10.095
209.39	33.565
209.76	41.838
210.13	44.409
210.50	28.723
210.86	31.922
211.23	35.245
211.60	34.454
211.96	26.793
212.33	20.213
212.70	7.431
213.07	-5.519
213.43	-53.480
213.80	-68.232
214.17	-29.740
214.53	-3.798
214.90	3.402
215.27	11.492
215.63	3.422
216.00	8.840
216.37	5.741
216.74	-4.254
217.10	2.653
217.47	2.317
217.84	8.330
218.20	1.209
218.57	-6.207
218.94	-16.382
219.30	-20.175
219.67	-14.039
220.04	-15.720
220.40	-16.897
220.77	-15.996
221.13	-12.506
221.50	-8.284
221.87	-7.642
222.23	-8.078
222.60	-16.395
222.97	-9.833
223.33	-3.402
223.70	-5.813
224.07	-7.641
224.43	-7.026
224.80	-5.721
225.16	-5.309
225.53	-4.863
225.90	-7.557
226.26	-4.504
226.63	-0.821
226.99	0.171
227.36	-0.446
227.73	2.159
228.09	4.039
228.46	5.487
228.82	6.384
229.19	5.581
229.56	6.192
229.92	7.866
230.29	7.698
230.65	6.567
231.02	3.792
231.38	1.738
231.75	-1.835
232.12	-4.477
232.48	-5.586
232.85	-5.998
233.21	-5.609
233.58	-6.664
233.94	-5.203
234.31	-4.771
234.68	-4.433
235.04	-2.292
235.41	-0.812
235.77	1.608
236.14	2.582
236.50	3.353
236.87	2.629
237.23	3.442
237.60	3.204
237.96	2.159
238.33	1.082
238.69	0.309
239.06	0.164
239.42	0.454
239.79	-0.327
240.15	-0.453
240.52	-0.389
240.88	0.055
241.25	-0.293
241.61	-0.006
241.98	-0.158
242.34	0.143
242.71	0.712
243.07	0.857
243.44	0.724
243.80	0.837
244.17	0.915
244.53	0.826
244.90	0.818
245.26	0.890
245.63	0.838
245.99	0.924
246.36	0.924
246.72	1.105
247.09	0.645
247.45	0.599
247.81	0.803
248.18	0.734
248.54	0.777
248.91	0.649
249.27	0.841
249.64	0.976
250.00	1.058
250.36	0.811
250.73	0.591
251.09	1.105
251.46	0.994
251.82	0.825
252.19	1.046
252.55	0.810
252.91	1.296
253.28	1.464
253.64	1.395
254.01	1.308
254.37	1.471
254.73	1.741
255.10	2.042
255.46	2.355
255.83	2.324
256.19	2.215
256.55	2.013
256.92	1.908
257.28	1.685
257.65	1.711
258.01	1.741
258.37	1.783
258.74	1.507
259.10	1.263
259.46	1.159
259.83	1.167
260.19	1.067
260.55	1.082
260.92	0.775
261.28	0.889
261.64	0.853
262.01	0.639
262.37	0.474
262.73	0.550
263.10	0.758
263.46	0.482
263.82	0.161
264.19	0.172
264.55	0.031
264.91	0.197
265.28	0.150
265.64	0.204
266.00	0.406
266.37	0.637
266.73	0.785
267.09	0.824
267.46	0.923
267.82	0.910
268.18	1.013
268.54	1.237
268.91	1.230
269.27	1.016
269.63	1.044
270.00	1.047
270.36	0.835
270.72	0.765
271.08	0.863
271.45	0.882
271.81	0.847
272.17	0.782
272.53	0.849
272.90	0.866
273.26	1.118
273.62	1.030
273.98	0.955
274.35	1.006
274.71	1.044
275.07	0.832
275.43	0.697
275.80	0.644
276.16	0.659
276.52	0.703
276.88	0.831
277.25	0.340
277.61	0.113
277.97	-0.077
278.33	0.109
278.69	-0.003
279.06	-0.154
279.42	-0.119
279.78	0.227
280.14	0.241
280.50	0.183
280.87	0.040
281.23	0.182
281.59	0.233
281.95	0.372
282.31	0.480
282.68	0.388
283.04	0.413
283.40	0.534
283.76	0.455
284.12	0.592
284.48	0.693
284.85	0.758
285.21	0.838
285.57	0.907
285.93	1.064
286.29	0.822
286.65	1.033
287.02	1.467
287.38	1.421
287.74	1.352
288.10	1.316
288.46	1.198
288.82	1.157
289.18	1.154
289.54	1.102
289.91	0.943
290.27	0.979
290.63	0.991
290.99	0.838
291.35	0.863
291.71	1.019
292.07	0.890
292.43	0.819
292.79	0.779
293.16	0.757
293.52	1.003
293.88	1.165
294.24	1.272
294.60	1.193
294.96	1.112
295.32	1.164
295.68	1.183
296.04	1.213
296.40	1.179
296.76	1.295
297.12	1.285
297.49	1.051
297.85	0.841
298.21	0.714
298.57	0.527
298.93	0.548
299.29	0.477
299.65	0.447
300.01	0.347
300.37	0.508
300.73	0.580
301.09	0.665
301.45	0.852
301.81	0.913
302.17	0.931
302.53	0.884
302.89	0.788
303.25	0.878
303.61	0.872
303.97	0.923
304.33	0.936
304.69	0.907
305.05	0.876
305.41	0.819
305.77	0.950
306.13	0.943
306.49	0.985
306.85	1.019
307.21	1.042
307.57	0.997
307.93	1.000
308.29	0.998
308.65	0.940
309.01	0.886
309.37	0.909
309.73	0.899
310.09	1.133
310.45	1.299
310.81	1.306
311.17	1.235
311.53	1.236
311.89	1.308
312.25	1.368
312.61	1.357
312.96	1.525
313.32	1.580
313.68	1.375
314.04	1.161
314.40	1.071
314.76	1.011
315.12	0.965
315.48	1.030
315.84	0.912
316.20	0.772
316.56	0.663
316.92	0.526
317.27	0.397
317.63	0.560
317.99	0.483
318.35	0.511
318.71	0.560
319.07	0.643
319.43	0.626
319.79	0.711
320.15	0.771
320.50	0.943
320.86	0.988
321.22	1.047
321.58	1.112
321.94	1.199
322.30	1.192
322.66	1.185
323.01	1.101
323.37	1.059
323.73	1.025
324.09	0.969
324.45	0.952
324.81	0.939
325.17	0.938
325.52	0.829
325.88	0.804
326.24	0.877
326.60	0.854
326.96	0.851
327.31	0.706
327.67	0.550
328.03	0.621
328.39	0.588
328.75	0.568
329.11	0.602
329.46	0.638
329.82	0.723
330.18	0.626
330.54	0.585
330.90	0.618
331.25	0.762
331.61	1.013
331.97	1.018
332.33	1.065
332.68	1.109
333.04	1.117
333.40	1.074
333.76	0.960
334.11	0.916
334.47	0.972
334.83	0.932
335.19	0.884
335.54	0.799
335.90	0.722
336.26	0.649
336.62	0.601
336.97	0.479
337.33	0.532
337.69	0.547
338.05	0.546
338.40	0.434
338.76	0.444
339.12	0.489
339.48	0.432
339.83	0.445
340.19	0.441
340.55	0.514
340.90	0.552
341.26	0.466
341.62	0.458
341.97	0.473
342.33	0.551
342.69	0.588
343.04	0.584
343.40	0.545
343.76	0.502
344.12	0.579
344.47	0.595
344.83	0.659
345.19	0.770
345.54	0.834
345.90	0.921
346.26	0.952
346.61	0.976
346.97	0.976
347.32	1.029
347.68	1.109
348.04	1.049
348.39	0.914
348.75	0.902
349.11	0.793
349.46	0.756
349.82	0.671
350.18	0.636
350.53	0.633
350.89	0.691
351.24	0.734
351.60	0.684
351.96	0.752
352.31	0.825
352.67	0.921
353.02	1.007
353.38	1.002
353.74	1.059
354.09	1.077
354.45	1.191
354.80	1.219
355.16	1.310
355.52	1.402
355.87	1.363
356.23	1.449
356.58	1.421
356.94	1.462
357.29	1.544
357.65	1.593
358.00	1.681
358.36	1.624
358.72	1.632
359.07	1.622
359.43	1.657
359.78	1.771
360.14	1.755
360.49	1.763
360.85	1.792
361.20	1.818
361.56	1.877
361.91	1.944
362.27	1.996
362.62	2.104
362.98	2.211
363.33	2.253
363.69	2.244
364.04	2.324
364.40	2.475
364.75	2.564
365.11	2.586
365.46	2.630
365.82	2.673
366.17	2.733
366.53	2.756
366.88	2.800
367.24	2.925
367.59	3.013
367.95	3.126
368.30	3.128
368.66	3.213
369.01	3.315
369.37	3.362
369.72	3.456
370.08	3.576
370.43	3.641
370.78	3.715
371.14	3.720
371.49	3.829
371.85	3.847
372.20	3.921
372.56	3.964
372.91	4.057
373.26	4.173
373.62	4.201
373.97	4.287
374.33	4.352
374.68	4.423
375.03	4.528
375.39	4.541
375.74	4.601
376.10	4.705
376.45	4.786
376.80	4.855
377.16	4.860
377.51	4.960
377.87	5.015
378.22	5.046
378.57	5.085
378.93	5.154
379.28	5.244
379.63	5.327
379.99	5.397
380.34	5.441
380.70	5.494
381.05	5.609
381.40	5.622
381.76	5.694
382.11	5.804
382.46	5.880
382.82	5.943
383.17	5.997
383.52	6.050
383.88	6.072
384.23	6.127
384.58	6.168
384.94	6.193
385.29	6.268
385.64	6.287
385.99	6.339
386.35	6.403
386.70	6.441
387.05	6.469
387.41	6.501
387.76	6.520
388.11	6.536
388.47	6.553
388.82	6.623
389.17	6.625
389.52	6.686
389.88	6.728
390.23	6.773
390.58	6.843
390.93	6.894
391.29	6.960
391.64	6.973
391.99	7.063
392.34	7.117
392.70	7.101
393.05	7.157
393.40	7.176
393.75	7.174
394.11	7.155
394.46	7.098
394.81	7.117
395.16	7.079
395.52	7.126
395.87	7.096
396.22	7.141
396.57	7.165
396.92	7.143
397.28	7.092
397.63	7.091
397.98	7.095
398.33	7.098
398.68	7.135
399.04	7.129
399.39	7.120
399.74	7.107
400.09	7.072
400.44	7.090
400.80	7.111
401.15	7.119
401.50	7.122
401.85	7.113
402.20	7.116
402.55	7.103
402.90	7.124
403.26	7.109
403.61	7.120
403.96	7.127
404.31	7.115
404.66	7.112
405.01	7.107
405.36	7.107
405.72	7.115
406.07	7.140
406.42	7.114
406.77	7.122
407.12	7.163
407.47	7.155
407.82	7.140
408.17	7.135
408.53	7.135
408.88	7.153
409.23	7.143
409.58	7.116
409.93	7.112
410.28	7.112
410.63	7.102
410.98	7.078
411.33	7.068
411.68	7.092
412.03	7.117
412.38	7.106
412.73	7.123
413.09	7.135
413.44	7.164
413.79	7.144
414.14	7.154
414.49	7.179
414.84	7.196
415.19	7.210
415.54	7.207
415.89	7.187
416.24	7.221
416.59	7.203
416.94	7.207
417.29	7.233
417.64	7.249
417.99	7.261
418.34	7.271
418.69	7.293
419.04	7.299
419.39	7.297
419.74	7.287
420.09	7.284
420.44	7.297
420.79	7.320
421.14	7.309
421.49	7.320
421.84	7.318
422.19	7.327
422.54	7.322
422.89	7.320
423.24	7.324
423.59	7.346
423.94	7.328
424.29	7.332
424.64	7.310
424.99	7.314
425.34	7.297
425.68	7.319
426.03	7.294
426.38	7.282
426.73	7.330
427.08	7.324
427.43	7.333
427.78	7.370
428.13	7.355
428.48	7.359
428.83	7.342
429.18	7.362
429.53	7.332
429.87	7.308
430.22	7.287
430.57	7.250
430.92	7.248
431.27	7.252
431.62	7.245
431.97	7.256
432.32	7.240
432.67	7.247
433.01	7.225
433.36	7.211
433.71	7.209
434.06	7.200
434.41	7.184
434.76	7.199
435.11	7.195
435.45	7.172
435.80	7.153
436.15	7.157
436.50	7.166
436.85	7.177
437.20	7.178
437.54	7.171
437.89	7.185
438.24	7.203
438.59	7.202
438.94	7.187
439.29	7.187
439.63	7.216
439.98	7.233
440.33	7.219
440.68	7.224
441.03	7.253
441.37	7.296
441.72	7.311
442.07	7.307
442.42	7.326
442.76	7.344
443.11	7.364
443.46	7.373
443.81	7.388
444.16	7.419
444.50	7.420
444.85	7.416
445.20	7.424
445.55	7.436
445.89	7.470
446.24	7.479
446.59	7.473
446.94	7.492
447.28	7.491
447.63	7.495
447.98	7.496
448.32	7.525
448.67	7.550
449.02	7.546
449.37	7.552
449.71	7.541
450.06	7.527
450.41	7.573
450.75	7.566
451.10	7.585
451.45	7.578
451.79	7.570
452.14	7.551
452.49	7.539
452.84	7.539
453.18	7.540
453.53	7.524
453.88	7.532
454.22	7.512
454.57	7.529
454.92	7.520
455.26	7.545
455.61	7.574
455.95	7.613
456.30	7.619
456.65	7.644
456.99	7.669
457.34	7.694
457.69	7.709
458.03	7.717
458.38	7.730
458.73	7.742
459.07	7.743
459.42	7.720
459.76	7.700
460.11	7.705
460.46	7.685
460.80	7.663
461.15	7.653
461.49	7.644
461.84	7.648
462.19	7.635
462.53	7.628
462.88	7.618
463.22	7.631
463.57	7.630
463.91	7.619
464.26	7.639
464.61	7.636
464.95	7.622
465.30	7.613
465.64	7.628
465.99	7.639
466.33	7.636
466.68	7.639
467.02	7.642
467.37	7.638
467.71	7.632
468.06	7.615
468.41	7.588
468.75	7.580
469.10	7.575
469.44	7.540
469.79	7.514
470.13	7.487
470.48	7.484
470.82	7.475
471.17	7.470
471.51	7.472
471.86	7.460
472.20	7.452
472.55	7.451
472.89	7.443
473.23	7.441
473.58	7.437
473.92	7.457
474.27	7.433
474.61	7.421
474.96	7.425
475.30	7.437
475.65	7.419
475.99	7.432
476.34	7.424
476.68	7.438
477.02	7.442
477.37	7.453
477.71	7.475
478.06	7.512
478.40	7.573
478.75	7.631
479.09	7.712
479.43	7.844
479.78	8.003
480.12	8.168
480.47	8.339
480.81	8.499
481.15	8.657
481.50	8.813
481.84	9.009
482.19	9.200
482.53	9.375
482.87	9.484
483.22	9.490
483.56	9.392
483.90	9.255
484.25	9.063
484.59	8.865
484.94	8.686
485.28	8.530
485.62	8.332
485.97	8.125
486.31	7.939
486.65	7.813
487.00	7.765
487.34	7.794
487.68	7.843
488.03	7.914
488.37	7.999
488.71	8.055
489.06	8.063
489.40	8.066
489.74	8.063
490.09	8.070
490.43	8.064
490.77	8.062
491.11	8.037
491.46	8.020
491.80	8.014
492.14	7.994
492.49	7.972
492.83	7.952
493.17	7.932
493.51	7.935
493.86	7.914
494.20	7.908
494.54	7.898
494.88	7.919
495.23	7.948
495.57	7.962
495.91	8.008
496.25	8.051
496.60	8.096
496.94	8.123
497.28	8.144
497.62	8.178
497.97	8.196
498.31	8.242
498.65	8.277
498.99	8.307
499.33	8.368
499.68	8.396
500.02	8.445
500.36	8.476
500.70	8.542
501.04	8.583
501.39	8.628
501.73	8.694
502.07	8.751
502.41	8.818
502.75	8.896
503.09	8.958
503.44	9.025
503.78	9.080
504.12	9.144
504.46	9.207
504.80	9.289
505.14	9.363
505.49	9.426
505.83	9.475
506.17	9.535
506.51	9.602
506.85	9.664
507.19	9.732
507.53	9.790
507.87	9.868
508.22	9.925
508.56	9.974
508.90	10.021
509.24	10.077
509.58	10.146
509.92	10.204
510.26	10.261
510.60	10.327
510.94	10.398
511.28	10.475
511.63	10.543
511.97	10.618
512.31	10.701
512.65	10.781
512.99	10.880
513.33	11.009
513.67	11.123
514.01	11.244
514.35	11.348
514.69	11.463
515.03	11.563
515.37	11.670
515.71	11.763
516.05	11.859
516.39	11.956
516.73	12.053
517.07	12.118
517.41	12.169
517.75	12.221
518.09	12.288
518.43	12.341
518.77	12.374
519.11	12.415
519.45	12.477
519.79	12.552
520.13	12.612
520.47	12.667
520.81	12.740
521.15	12.846
521.49	12.923
521.83	13.016
522.17	13.104
522.51	13.237
522.85	13.366
523.19	13.525
523.53	13.678
523.87	13.857
524.21	14.045
524.55	14.210
524.89	14.378
525.23	14.528
525.57	14.656
525.91	14.793
526.25	14.917
526.58	15.033
526.92	15.112
527.26	15.160
527.60	15.173
527.94	15.189
528.28	15.188
528.62	15.160
528.96	15.145
529.30	15.124
529.64	15.086
529.97	15.039
530.31	14.983
530.65	14.939
530.99	14.928
531.33	14.963
531.67	14.952
532.01	14.973
532.35	14.983
532.68	14.993
533.02	14.995
533.36	14.987
533.70	14.987
534.04	14.981
534.38	14.972
534.71	14.977
535.05	14.953
535.39	14.946
535.73	14.933
536.07	14.948
536.41	14.956
536.74	14.982
537.08	15.018
537.42	15.061
537.76	15.123
538.10	15.187
538.43	15.234
538.77	15.281
539.11	15.334
539.45	15.369
539.79	15.418
540.12	15.438
540.46	15.446
540.80	15.446
541.14	15.428
541.47	15.386
541.81	15.343
542.15	15.300
542.49	15.261
542.82	15.206
543.16	15.171
543.50	15.099
543.84	15.072
544.17	15.039
544.51	15.025
544.85	15.011
545.18	15.011
545.52	15.009
545.86	14.998
546.20	15.004
546.53	15.011
546.87	14.994
547.21	14.992
547.54	14.965
547.88	14.971
548.22	14.958
548.55	14.945
548.89	14.939
549.23	14.947
549.56	14.927
549.90	14.931
550.24	14.938
550.57	14.938
550.91	14.938
551.25	14.945
551.58	14.930
551.92	14.926
552.26	14.907
552.59	14.913
552.93	14.924
553.27	14.945
553.60	14.918
553.94	14.893
554.27	14.878
554.61	14.872
554.95	14.854
555.28	14.834
555.62	14.813
555.95	14.826
556.29	14.825
556.63	14.782
556.96	14.754
557.30	14.746
557.63	14.704
557.97	14.686
558.31	14.643
558.64	14.632
558.98	14.638
559.31	14.621
559.65	14.573
559.98	14.502
560.32	14.485
560.65	14.460
560.99	14.417
561.33	14.398
561.66	14.354
562.00	14.348
562.33	14.299
562.67	14.247
563.00	14.214
563.34	14.221
563.67	14.227
564.01	14.176
564.34	14.134
564.68	14.113
565.01	14.072
565.35	14.065
565.68	14.019
566.02	13.975
566.35	13.934
566.69	13.887
567.02	13.848
567.36	13.773
567.69	13.750
568.03	13.722
568.36	13.667
568.69	13.620
569.03	13.557
569.36	13.522
569.70	13.491
570.03	13.465
570.37	13.434
570.70	13.379
571.04	13.359
571.37	13.287
571.70	13.241
572.04	13.210
572.37	13.188
572.71	13.155
573.04	13.110
573.37	13.074
573.71	13.035
574.04	13.000
574.38	12.943
574.71	12.912
575.04	12.901
575.38	12.837
575.71	12.782
576.05	12.756
576.38	12.725
576.71	12.681
577.05	12.634
577.38	12.591
577.71	12.542
578.05	12.508
578.38	12.455
578.71	12.421
579.05	12.425
579.38	12.395
579.71	12.339
580.05	12.300
580.38	12.280
580.71	12.260
581.05	12.230
581.38	12.196
581.71	12.195
582.05	12.179
582.38	12.156
582.71	12.119
583.04	12.119
583.38	12.103
583.71	12.102
584.04	12.080
584.38	12.056
584.71	12.046
585.04	12.045
585.37	12.013
585.71	11.995
586.04	11.984
586.37	11.986
586.70	11.978
587.04	11.969
587.37	11.952
587.70	11.954
588.03	11.958
588.37	11.968
588.70	11.966
589.03	11.956
589.36	11.956
589.69	11.930
590.03	11.914
590.36	11.894
590.69	11.869
591.02	11.806
591.35	11.771
591.69	11.736
592.02	11.685
592.35	11.674
592.68	11.674
593.01	11.655
593.35	11.636
593.68	11.630
594.01	11.598
594.34	11.558
594.67	11.575
595.00	11.559
595.34	11.544
595.67	11.514
596.00	11.485
596.33	11.445
596.66	11.400
596.99	11.369
597.32	11.313
597.65	11.301
597.99	11.294
598.32	11.242
598.65	11.223
598.98	11.200
599.31	11.201
599.64	11.194
599.97	11.182
600.30	11.179
600.63	11.187
600.96	11.185
601.30	11.184
601.63	11.209
601.96	11.218
602.29	11.213
602.62	11.206
602.95	11.202
603.28	11.186
603.61	11.163
603.94	11.156
604.27	11.140
604.60	11.124
604.93	11.091
605.26	11.049
605.59	11.039
605.92	11.019
606.25	10.990
606.58	10.969
606.91	10.931
607.24	10.947
607.57	10.937
607.90	10.926
608.23	10.886
608.56	10.844
608.89	10.822
609.22	10.786
609.55	10.759
609.88	10.726
610.21	10.676
610.54	10.640
610.87	10.576
611.20	10.522
611.53	10.470
611.86	10.435
612.19	10.392
612.52	10.361
612.85	10.317
613.18	10.291
613.51	10.266
613.84	10.231
614.17	10.194
614.49	10.189
614.82	10.145
615.15	10.110
615.48	10.126
615.81	10.116
616.14	10.092
616.47	10.049
616.80	10.006
617.13	9.966
617.46	9.929
617.78	9.930
618.11	9.890
618.44	9.877
618.77	9.869
619.10	9.824
619.43	9.828
619.76	9.795
620.09	9.799
620.41	9.794
620.74	9.785
621.07	9.814
621.40	9.792
621.73	9.799
622.06	9.822
622.38	9.806
622.71	9.812
623.04	9.816
623.37	9.837
623.70	9.877
624.02	9.896
624.35	9.946
624.68	9.955
625.01	9.979
625.34	10.018
625.66	10.007
625.99	10.033
626.32	10.038
626.65	10.048
626.98	10.052
627.30	10.042
627.63	10.004
627.96	9.950
628.29	9.918
628.61	9.926
628.94	9.891
629.27	9.871
629.60	9.836
629.92	9.834
630.25	9.783
630.58	9.770
630.91	9.738
631.23	9.743
631.56	9.743
631.89	9.709
632.21	9.634
632.54	9.581
632.87	9.550
633.19	9.505
633.52	9.451
633.85	9.426
634.18	9.367
634.50	9.320
634.83	9.255
635.16	9.186
635.48	9.126
635.81	9.080
636.14	9.009
636.46	8.929
636.79	8.892
637.11	8.784
637.44	8.693
637.77	8.647
638.09	8.579
638.42	8.511
638.75	8.472
639.07	8.439
639.40	8.390
639.73	8.331
640.05	8.273
640.38	8.235
640.70	8.220
641.03	8.198
641.36	8.113
641.68	8.092
642.01	8.059
642.33	8.008
642.66	7.990
642.98	7.952
643.31	7.947
643.64	7.955
643.96	7.930
644.29	7.931
644.61	7.938
644.94	7.965
645.26	7.911
645.59	7.933
645.91	7.924
646.24	7.896
646.56	7.895
646.89	7.874
647.22	7.858
647.54	7.838
647.87	7.842
648.19	7.813
648.52	7.765
648.84	7.777
649.17	7.725
649.49	7.734
649.82	7.737
650.14	7.732
650.47	7.709
650.79	7.708
651.11	7.711
651.44	7.742
651.76	7.745
