OOIBase32 Version 2.0.0.6 Data File
++++++++++++++++++++++++++++++++++++
Date: 01-23-2012, 23:05:10
User: Valued Ocean Optics Customer
Spectrometer Serial Number: USB2E2917
Spectrometer Channel: Master
Integration Time (msec): 5
Spectra Averaged: 10
Boxcar Smoothing: 5
Correct for Electrical Dark: Enabled
Time Normalized: Disabled
Dual-beam Reference: Disabled
Reference Channel: Master
Temperature: Not acquired
Spectrometer Type: S2000
ADC Type: USB2000
Number of Pixels in File: 2048
Graph Title: 
>>>>>Begin Spectral Data<<<<<
180.30	0.000
180.67	0.000
181.03	27.368
181.40	706.556
181.77	4953.364
182.14	43.305
182.51	-681.090
182.88	-163.064
183.25	-12.220
183.62	17.306
183.99	450.125
184.36	17.531
184.73	232.213
185.10	-13.676
185.46	-523.221
185.83	19.404
186.20	-326.915
186.57	103.157
186.94	46.953
187.31	14.881
187.68	107.598
188.05	76.631
188.42	80.176
188.78	156.207
189.15	394.066
189.52	-90.097
189.89	-3.460
190.26	9.711
190.63	25.742
191.00	37.357
191.37	32.753
191.73	34.120
192.10	26.335
192.47	23.346
192.84	22.268
193.21	26.575
193.58	16.314
193.94	13.505
194.31	19.662
194.68	15.251
195.05	-4.095
195.42	2.037
195.79	-7.577
196.15	-3.423
196.52	-16.410
196.89	-11.036
197.26	-15.721
197.63	1.832
198.00	0.071
198.36	-6.029
198.73	-27.340
199.10	-40.603
199.47	-46.914
199.84	-37.913
200.20	-28.392
200.57	-11.850
200.94	-18.060
201.31	-20.919
201.68	-22.183
202.04	-15.160
202.41	-12.457
202.78	-7.280
203.15	15.387
203.51	2.753
203.88	3.069
204.25	8.360
204.62	4.472
204.98	-9.311
205.35	-6.187
205.72	-9.634
206.09	-18.627
206.46	-94.658
206.82	-75.001
207.19	-86.186
207.56	-127.765
207.92	-119.535
208.29	-151.527
208.66	-101.926
209.03	-89.913
209.39	-58.929
209.76	-65.447
210.13	-92.685
210.50	-33.628
210.86	-27.457
211.23	-42.013
211.60	-21.621
211.96	-30.322
212.33	-29.269
212.70	-48.742
213.07	-46.493
213.43	-110.264
213.80	-85.105
214.17	-60.136
214.53	-48.504
214.90	-48.282
215.27	-33.412
215.63	-37.696
216.00	-29.870
216.37	-20.087
216.74	-19.661
217.10	-16.994
217.47	-15.655
217.84	-22.348
218.20	-24.435
218.57	-24.775
218.94	-22.395
219.30	-29.016
219.67	-31.001
220.04	-23.354
220.40	-23.298
220.77	-25.263
221.13	-21.691
221.50	-13.085
221.87	-1.564
222.23	2.831
222.60	3.665
222.97	6.692
223.33	15.068
223.70	15.929
224.07	12.017
224.43	7.888
224.80	5.253
225.16	0.654
225.53	-1.185
225.90	-5.626
226.26	-6.127
226.63	-4.809
226.99	-2.803
227.36	-4.265
227.73	-3.544
228.09	-3.457
228.46	-1.144
228.82	1.123
229.19	2.650
229.56	2.432
229.92	3.786
230.29	4.711
230.65	3.085
231.02	-0.179
231.38	-2.378
231.75	-5.391
232.12	-5.300
232.48	-7.543
232.85	-10.132
233.21	-9.270
233.58	-8.690
233.94	-8.826
234.31	-10.226
234.68	-8.954
235.04	-8.077
235.41	-5.760
235.77	-2.939
236.14	-1.770
236.50	0.199
236.87	0.766
237.23	0.106
237.60	-0.649
237.96	-0.398
238.33	-0.243
238.69	-0.743
239.06	-0.369
239.42	0.141
239.79	-0.941
240.15	-1.724
240.52	-1.845
240.88	-0.813
241.25	-0.758
241.61	-0.340
241.98	-0.365
242.34	-0.082
242.71	0.599
243.07	0.510
243.44	-0.220
243.80	-0.137
244.17	0.001
244.53	-0.138
244.90	-0.298
245.26	-0.353
245.63	-0.484
245.99	-0.439
246.36	-0.606
246.72	-0.763
247.09	-1.064
247.45	-0.716
247.81	-0.304
248.18	-0.375
248.54	-0.317
248.91	-0.883
249.27	-0.742
249.64	-0.293
250.00	-0.210
250.36	0.103
250.73	-0.180
251.09	-0.008
251.46	-0.188
251.82	-0.448
252.19	-0.372
252.55	-0.034
252.91	0.624
253.28	0.726
253.64	0.186
254.01	0.094
254.37	0.173
254.73	0.520
255.10	0.991
255.46	1.611
255.83	1.705
256.19	1.577
256.55	1.169
256.92	1.227
257.28	1.026
257.65	1.127
258.01	0.949
258.37	0.733
258.74	0.556
259.10	0.216
259.46	-0.203
259.83	-0.275
260.19	-0.326
260.55	-0.301
260.92	-0.701
261.28	-0.819
261.64	-0.839
262.01	-0.793
262.37	-0.733
262.73	-0.638
263.10	-0.209
263.46	-0.151
263.82	-0.338
264.19	-0.324
264.55	-0.423
264.91	-0.175
265.28	-0.135
265.64	-0.182
266.00	0.030
266.37	-0.005
266.73	-0.013
267.09	-0.101
267.46	0.082
267.82	0.076
268.18	0.409
268.54	0.474
268.91	0.495
269.27	0.766
269.63	0.863
270.00	0.783
270.36	0.671
270.72	0.798
271.08	0.680
271.45	0.662
271.81	0.481
272.17	0.273
272.53	0.234
272.90	0.278
273.26	0.084
273.62	-0.089
273.98	-0.247
274.35	-0.244
274.71	-0.228
275.07	-0.094
275.43	-0.128
275.80	-0.017
276.16	-0.322
276.52	-0.505
276.88	-0.408
277.25	-0.500
277.61	-0.791
277.97	-0.758
278.33	-0.523
278.69	-0.690
279.06	-0.673
279.42	-0.700
279.78	-0.511
280.14	-0.159
280.50	0.055
280.87	-0.098
281.23	0.041
281.59	0.232
281.95	0.334
282.31	0.331
282.68	0.127
283.04	-0.047
283.40	0.035
283.76	0.014
284.12	0.209
284.48	0.320
284.85	0.363
285.21	0.236
285.57	0.215
285.93	0.237
286.29	0.034
286.65	0.281
287.02	0.738
287.38	0.793
287.74	0.779
288.10	0.517
288.46	0.333
288.82	0.165
289.18	0.224
289.54	0.323
289.91	0.303
290.27	0.358
290.63	0.524
290.99	0.374
291.35	0.238
291.71	0.262
292.07	0.282
292.43	0.329
292.79	0.544
293.16	0.615
293.52	0.618
293.88	0.797
294.24	0.989
294.60	0.886
294.96	0.752
295.32	0.834
295.68	0.956
296.04	0.943
296.40	0.984
296.76	0.975
297.12	0.797
297.49	0.709
297.85	0.534
298.21	0.470
298.57	0.303
298.93	0.319
299.29	0.152
299.65	0.013
300.01	0.001
300.37	0.046
300.73	0.057
301.09	0.142
301.45	0.224
301.81	0.234
302.17	0.243
302.53	0.254
302.89	0.256
303.25	0.306
303.61	0.317
303.97	0.229
304.33	0.246
304.69	0.249
305.05	0.295
305.41	0.251
305.77	0.369
306.13	0.279
306.49	0.317
306.85	0.326
307.21	0.293
307.57	0.281
307.93	0.344
308.29	0.418
308.65	0.381
309.01	0.436
309.37	0.374
309.73	0.317
310.09	0.397
310.45	0.475
310.81	0.493
311.17	0.474
311.53	0.465
311.89	0.482
312.25	0.365
312.61	0.288
312.96	0.225
313.32	0.346
313.68	0.205
314.04	0.075
314.40	0.052
314.76	0.011
315.12	0.156
315.48	0.160
315.84	0.123
316.20	0.133
316.56	0.103
316.92	0.114
317.27	0.097
317.63	0.215
317.99	0.293
318.35	0.276
318.71	0.296
319.07	0.229
319.43	0.311
319.79	0.329
320.15	0.286
320.50	0.425
320.86	0.495
321.22	0.504
321.58	0.420
321.94	0.297
322.30	0.210
322.66	0.138
323.01	0.056
323.37	-0.040
323.73	-0.076
324.09	-0.120
324.45	-0.128
324.81	-0.267
325.17	-0.270
325.52	-0.261
325.88	-0.185
326.24	-0.113
326.60	-0.053
326.96	0.004
327.31	-0.048
327.67	-0.125
328.03	-0.160
328.39	-0.307
328.75	-0.294
329.11	-0.279
329.46	-0.196
329.82	-0.213
330.18	-0.252
330.54	-0.353
330.90	-0.368
331.25	-0.368
331.61	-0.240
331.97	-0.149
332.33	-0.055
332.68	0.058
333.04	0.050
333.40	-0.075
333.76	-0.077
334.11	-0.006
334.47	0.072
334.83	-0.016
335.19	0.005
335.54	0.008
335.90	-0.028
336.26	-0.020
336.62	-0.087
336.97	-0.108
337.33	-0.073
337.69	-0.052
338.05	-0.177
338.40	-0.241
338.76	-0.116
339.12	-0.068
339.48	-0.123
339.83	-0.154
340.19	-0.177
340.55	-0.122
340.90	-0.187
341.26	-0.224
341.62	-0.250
341.97	-0.232
342.33	-0.171
342.69	-0.208
343.04	-0.237
343.40	-0.314
343.76	-0.371
344.12	-0.311
344.47	-0.307
344.83	-0.268
345.19	-0.164
345.54	-0.072
345.90	0.035
346.26	0.057
346.61	0.081
346.97	0.102
347.32	0.149
347.68	0.211
348.04	0.121
348.39	0.033
348.75	0.026
349.11	-0.080
349.46	-0.181
349.82	-0.237
350.18	-0.323
350.53	-0.313
350.89	-0.298
351.24	-0.312
351.60	-0.298
351.96	-0.237
352.31	-0.233
352.67	-0.191
353.02	-0.170
353.38	-0.142
353.74	-0.170
354.09	-0.166
354.45	-0.169
354.80	-0.257
355.16	-0.224
355.52	-0.142
355.87	-0.215
356.23	-0.210
356.58	-0.227
356.94	-0.204
357.29	-0.188
357.65	-0.127
358.00	-0.055
358.36	-0.058
358.72	0.000
359.07	0.021
359.43	-0.005
359.78	0.072
360.14	0.096
360.49	0.073
360.85	0.076
361.20	0.056
361.56	0.018
361.91	-0.044
362.27	-0.079
362.62	-0.085
362.98	-0.096
363.33	-0.155
363.69	-0.217
364.04	-0.170
364.40	-0.156
364.75	-0.194
365.11	-0.202
365.46	-0.243
365.82	-0.233
366.17	-0.228
366.53	-0.244
366.88	-0.219
367.24	-0.183
367.59	-0.185
367.95	-0.255
368.30	-0.304
368.66	-0.249
369.01	-0.271
369.37	-0.224
369.72	-0.181
370.08	-0.135
370.43	-0.108
370.78	-0.141
371.14	-0.204
371.49	-0.169
371.85	-0.131
372.20	-0.071
372.56	-0.110
372.91	-0.066
373.26	-0.089
373.62	-0.149
373.97	-0.153
374.33	-0.157
374.68	-0.171
375.03	-0.137
375.39	-0.187
375.74	-0.228
376.10	-0.266
376.45	-0.249
376.80	-0.244
377.16	-0.239
377.51	-0.200
377.87	-0.194
378.22	-0.229
378.57	-0.205
378.93	-0.181
379.28	-0.123
379.63	-0.112
379.99	-0.066
380.34	-0.067
380.70	-0.073
381.05	-0.057
381.40	-0.069
381.76	-0.038
382.11	-0.028
382.46	0.007
382.82	0.006
383.17	-0.021
383.52	-0.018
383.88	-0.017
384.23	-0.016
384.58	-0.029
384.94	-0.016
385.29	-0.013
385.64	-0.038
385.99	0.023
386.35	0.037
386.70	0.055
387.05	0.038
387.41	0.042
387.76	0.018
388.11	0.012
388.47	-0.013
388.82	-0.007
389.17	0.009
389.52	0.019
389.88	0.015
390.23	0.022
390.58	0.040
390.93	0.089
391.29	0.131
391.64	0.194
391.99	0.275
392.34	0.340
392.70	0.345
393.05	0.355
393.40	0.364
393.75	0.343
394.11	0.358
394.46	0.332
394.81	0.345
395.16	0.321
395.52	0.311
395.87	0.294
396.22	0.331
396.57	0.340
396.92	0.357
397.28	0.367
397.63	0.383
397.98	0.361
398.33	0.404
398.68	0.418
399.04	0.461
399.39	0.442
399.74	0.433
400.09	0.442
400.44	0.462
400.80	0.491
401.15	0.501
401.50	0.528
401.85	0.561
402.20	0.572
402.55	0.602
402.90	0.601
403.26	0.639
403.61	0.648
403.96	0.646
404.31	0.657
404.66	0.677
405.01	0.675
405.36	0.685
405.72	0.711
406.07	0.708
406.42	0.714
406.77	0.718
407.12	0.749
407.47	0.782
407.82	0.801
408.17	0.807
408.53	0.786
408.88	0.817
409.23	0.834
409.58	0.807
409.93	0.848
410.28	0.864
410.63	0.909
410.98	0.921
411.33	0.952
411.68	0.967
412.03	1.039
412.38	1.090
412.73	1.141
413.09	1.195
413.44	1.249
413.79	1.295
414.14	1.339
414.49	1.391
414.84	1.446
415.19	1.487
415.54	1.558
415.89	1.586
416.24	1.657
416.59	1.699
416.94	1.730
417.29	1.778
417.64	1.791
417.99	1.818
418.34	1.836
418.69	1.854
419.04	1.886
419.39	1.898
419.74	1.913
420.09	1.905
420.44	1.916
420.79	1.931
421.14	1.937
421.49	1.961
421.84	1.968
422.19	1.985
422.54	1.986
422.89	1.988
423.24	1.994
423.59	1.995
423.94	1.997
424.29	1.995
424.64	2.002
424.99	1.998
425.34	1.998
425.68	1.999
426.03	1.991
426.38	2.001
426.73	1.998
427.08	1.992
427.43	2.030
427.78	2.047
428.13	2.034
428.48	2.053
428.83	2.075
429.18	2.083
429.53	2.095
429.87	2.090
430.22	2.103
430.57	2.118
430.92	2.127
431.27	2.134
431.62	2.132
431.97	2.154
432.32	2.146
432.67	2.146
433.01	2.158
433.36	2.151
433.71	2.171
434.06	2.165
434.41	2.158
434.76	2.168
435.11	2.166
435.45	2.187
435.80	2.197
436.15	2.225
436.50	2.238
436.85	2.260
437.20	2.287
437.54	2.290
437.89	2.298
438.24	2.325
438.59	2.340
438.94	2.339
439.29	2.336
439.63	2.353
439.98	2.339
440.33	2.348
440.68	2.362
441.03	2.379
441.37	2.411
441.72	2.458
442.07	2.478
442.42	2.508
442.76	2.542
443.11	2.585
443.46	2.618
443.81	2.646
444.16	2.666
444.50	2.670
444.85	2.684
445.20	2.686
445.55	2.686
445.89	2.693
446.24	2.683
446.59	2.671
446.94	2.659
447.28	2.655
447.63	2.656
447.98	2.648
448.32	2.658
448.67	2.672
449.02	2.675
449.37	2.670
449.71	2.684
450.06	2.698
450.41	2.728
450.75	2.754
451.10	2.755
451.45	2.764
451.79	2.778
452.14	2.778
452.49	2.786
452.84	2.802
453.18	2.818
453.53	2.823
453.88	2.834
454.22	2.843
454.57	2.852
454.92	2.873
455.26	2.905
455.61	2.960
455.95	2.998
456.30	3.019
456.65	3.062
456.99	3.083
457.34	3.096
457.69	3.126
458.03	3.149
458.38	3.169
458.73	3.169
459.07	3.161
459.42	3.127
459.76	3.098
460.11	3.075
460.46	3.034
460.80	3.015
461.15	2.997
461.49	2.959
461.84	2.925
462.19	2.889
462.53	2.889
462.88	2.890
463.22	2.896
463.57	2.896
463.91	2.898
464.26	2.915
464.61	2.922
464.95	2.914
465.30	2.908
465.64	2.926
465.99	2.935
466.33	2.937
466.68	2.933
467.02	2.939
467.37	2.941
467.71	2.936
468.06	2.952
468.41	2.946
468.75	2.952
469.10	2.968
469.44	2.949
469.79	2.931
470.13	2.900
470.48	2.888
470.82	2.889
471.17	2.894
471.51	2.892
471.86	2.867
472.20	2.874
472.55	2.882
472.89	2.878
473.23	2.876
473.58	2.893
473.92	2.906
474.27	2.902
474.61	2.893
474.96	2.900
475.30	2.915
475.65	2.923
475.99	2.923
476.34	2.927
476.68	2.931
477.02	2.944
477.37	2.954
477.71	2.996
478.06	3.050
478.40	3.134
478.75	3.221
479.09	3.332
479.43	3.435
479.78	3.561
480.12	3.672
480.47	3.799
480.81	3.913
481.15	4.019
481.50	4.119
481.84	4.235
482.19	4.338
482.53	4.432
482.87	4.482
483.22	4.491
483.56	4.441
483.90	4.375
484.25	4.279
484.59	4.187
484.94	4.106
485.28	4.026
485.62	3.929
485.97	3.831
486.31	3.743
486.65	3.679
487.00	3.660
487.34	3.668
487.68	3.700
488.03	3.729
488.37	3.764
488.71	3.782
489.06	3.785
489.40	3.792
489.74	3.786
490.09	3.782
490.43	3.776
490.77	3.754
491.11	3.741
491.46	3.719
491.80	3.714
492.14	3.691
492.49	3.685
492.83	3.672
493.17	3.652
493.51	3.647
493.86	3.636
494.20	3.644
494.54	3.676
494.88	3.708
495.23	3.740
495.57	3.767
495.91	3.820
496.25	3.864
496.60	3.904
496.94	3.941
497.28	3.983
497.62	4.032
497.97	4.062
498.31	4.099
498.65	4.134
498.99	4.161
499.33	4.222
499.68	4.261
500.02	4.306
500.36	4.352
500.70	4.399
501.04	4.439
501.39	4.479
501.73	4.540
502.07	4.618
502.41	4.679
502.75	4.781
503.09	4.857
503.44	4.926
503.78	4.985
504.12	5.070
504.46	5.173
504.80	5.266
505.14	5.378
505.49	5.483
505.83	5.553
506.17	5.663
506.51	5.748
506.85	5.842
507.19	5.940
507.53	6.062
507.87	6.165
508.22	6.259
508.56	6.357
508.90	6.424
509.24	6.523
509.58	6.618
509.92	6.712
510.26	6.811
510.60	6.900
510.94	7.000
511.28	7.072
511.63	7.171
511.97	7.264
512.31	7.375
512.65	7.519
512.99	7.649
513.33	7.817
513.67	7.965
514.01	8.159
514.35	8.330
514.69	8.506
515.03	8.686
515.37	8.848
515.71	9.013
516.05	9.155
516.39	9.281
516.73	9.407
517.07	9.519
517.41	9.618
517.75	9.698
518.09	9.803
518.43	9.887
518.77	9.961
519.11	10.054
519.45	10.133
519.79	10.238
520.13	10.351
520.47	10.473
520.81	10.604
521.15	10.766
521.49	10.920
521.83	11.073
522.17	11.228
522.51	11.410
522.85	11.610
523.19	11.841
523.53	12.089
523.87	12.346
524.21	12.583
524.55	12.794
524.89	13.002
525.23	13.195
525.57	13.366
525.91	13.541
526.25	13.686
526.58	13.806
526.92	13.906
527.26	13.972
527.60	14.002
527.94	14.032
528.28	14.056
528.62	14.063
528.96	14.070
529.30	14.070
529.64	14.067
529.97	14.066
530.31	14.061
530.65	14.066
530.99	14.097
531.33	14.140
531.67	14.173
532.01	14.209
532.35	14.235
532.68	14.249
533.02	14.274
533.36	14.275
533.70	14.277
534.04	14.294
534.38	14.306
534.71	14.302
535.05	14.305
535.39	14.324
535.73	14.347
536.07	14.389
536.41	14.422
536.74	14.449
537.08	14.512
537.42	14.595
537.76	14.648
538.10	14.707
538.43	14.785
538.77	14.860
539.11	14.919
539.45	14.965
539.79	15.012
540.12	15.048
540.46	15.074
540.80	15.068
541.14	15.047
541.47	15.024
541.81	15.002
542.15	14.963
542.49	14.924
542.82	14.879
543.16	14.841
543.50	14.796
543.84	14.752
544.17	14.729
544.51	14.727
544.85	14.722
545.18	14.723
545.52	14.736
545.86	14.719
546.20	14.732
546.53	14.750
546.87	14.743
547.21	14.730
547.54	14.719
547.88	14.696
548.22	14.686
548.55	14.664
548.89	14.658
549.23	14.636
549.56	14.644
549.90	14.649
550.24	14.607
550.57	14.597
550.91	14.589
551.25	14.611
551.58	14.602
551.92	14.579
552.26	14.561
552.59	14.571
552.93	14.560
553.27	14.540
553.60	14.489
553.94	14.468
554.27	14.456
554.61	14.449
554.95	14.405
555.28	14.409
555.62	14.367
555.95	14.383
556.29	14.351
556.63	14.300
556.96	14.266
557.30	14.259
557.63	14.226
557.97	14.175
558.31	14.121
558.64	14.095
558.98	14.066
559.31	14.080
559.65	13.990
559.98	13.945
560.32	13.923
560.65	13.894
560.99	13.827
561.33	13.803
561.66	13.767
562.00	13.711
562.33	13.678
562.67	13.632
563.00	13.550
563.34	13.554
563.67	13.508
564.01	13.452
564.34	13.384
564.68	13.361
565.01	13.312
565.35	13.262
565.68	13.204
566.02	13.109
566.35	13.028
566.69	12.953
567.02	12.857
567.36	12.766
567.69	12.706
568.03	12.655
568.36	12.571
568.69	12.479
569.03	12.431
569.36	12.370
569.70	12.322
570.03	12.260
570.37	12.206
570.70	12.150
571.04	12.087
571.37	12.023
571.70	11.959
572.04	11.888
572.37	11.864
572.71	11.780
573.04	11.739
573.37	11.686
573.71	11.636
574.04	11.583
574.38	11.514
574.71	11.468
575.04	11.395
575.38	11.329
575.71	11.255
576.05	11.155
576.38	11.109
576.71	11.026
577.05	10.942
577.38	10.844
577.71	10.764
578.05	10.687
578.38	10.607
578.71	10.545
579.05	10.483
579.38	10.419
579.71	10.354
580.05	10.283
580.38	10.234
580.71	10.177
581.05	10.137
581.38	10.104
581.71	10.089
582.05	10.046
582.38	10.004
582.71	9.949
583.04	9.946
583.38	9.920
583.71	9.884
584.04	9.874
584.38	9.852
584.71	9.846
585.04	9.835
585.37	9.808
585.71	9.812
586.04	9.793
586.37	9.819
586.70	9.813
587.04	9.815
587.37	9.818
587.70	9.789
588.03	9.771
588.37	9.753
588.70	9.718
589.03	9.679
589.36	9.654
589.69	9.629
590.03	9.596
590.36	9.555
590.69	9.487
591.02	9.437
591.35	9.394
591.69	9.366
592.02	9.347
592.35	9.328
592.68	9.328
593.01	9.309
593.35	9.317
593.68	9.281
594.01	9.271
594.34	9.269
594.67	9.263
595.00	9.244
595.34	9.214
595.67	9.174
596.00	9.160
596.33	9.098
596.66	9.054
596.99	8.999
597.32	8.957
597.65	8.911
597.99	8.875
598.32	8.822
598.65	8.782
598.98	8.756
599.31	8.711
599.64	8.673
599.97	8.671
600.30	8.660
600.63	8.639
600.96	8.634
601.30	8.620
601.63	8.646
601.96	8.642
602.29	8.618
602.62	8.612
602.95	8.612
603.28	8.585
603.61	8.572
603.94	8.545
604.27	8.536
604.60	8.496
604.93	8.458
605.26	8.402
605.59	8.380
605.92	8.350
606.25	8.306
606.58	8.264
606.91	8.212
607.24	8.155
607.57	8.129
607.90	8.075
608.23	8.028
608.56	7.995
608.89	7.934
609.22	7.877
609.55	7.836
609.88	7.774
610.21	7.711
610.54	7.660
610.87	7.595
611.20	7.494
611.53	7.423
611.86	7.365
612.19	7.254
612.52	7.188
612.85	7.123
613.18	7.089
613.51	7.058
613.84	6.995
614.17	6.966
614.49	6.953
614.82	6.903
615.15	6.864
615.48	6.846
615.81	6.850
616.14	6.836
616.47	6.790
616.80	6.714
617.13	6.659
617.46	6.603
617.78	6.541
618.11	6.498
618.44	6.483
618.77	6.421
619.10	6.364
619.43	6.315
619.76	6.280
620.09	6.262
620.41	6.218
620.74	6.211
621.07	6.260
621.40	6.268
621.73	6.247
622.06	6.299
622.38	6.349
622.71	6.384
623.04	6.431
623.37	6.441
623.70	6.461
624.02	6.526
624.35	6.564
624.68	6.553
625.01	6.604
625.34	6.626
625.66	6.610
625.99	6.597
626.32	6.588
626.65	6.585
626.98	6.583
627.30	6.573
627.63	6.556
627.96	6.484
628.29	6.480
628.61	6.412
628.94	6.364
629.27	6.281
629.60	6.255
629.92	6.263
630.25	6.202
630.58	6.171
630.91	6.148
631.23	6.107
631.56	6.117
631.89	6.026
632.21	5.988
632.54	5.964
632.87	5.954
633.19	5.893
633.52	5.808
633.85	5.801
634.18	5.750
634.50	5.653
634.83	5.579
635.16	5.467
635.48	5.417
635.81	5.354
636.14	5.270
636.46	5.209
636.79	5.165
637.11	5.079
637.44	4.926
637.77	4.825
638.09	4.749
638.42	4.664
638.75	4.603
639.07	4.554
639.40	4.484
639.73	4.415
640.05	4.329
640.38	4.267
640.70	4.201
641.03	4.180
641.36	4.129
641.68	4.111
642.01	4.082
642.33	4.033
642.66	4.011
642.98	3.960
643.31	3.919
643.64	3.864
643.96	3.810
644.29	3.786
644.61	3.775
644.94	3.761
645.26	3.740
645.59	3.724
645.91	3.752
646.24	3.725
646.56	3.721
646.89	3.716
647.22	3.713
647.54	3.704
647.87	3.696
648.19	3.636
648.52	3.600
