OOIBase32 Version 2.0.0.6 Data File
++++++++++++++++++++++++++++++++++++
Date: 01-24-2012, 17:45:54
User: Valued Ocean Optics Customer
Spectrometer Serial Number: USB2E2917
Spectrometer Channel: Master
Integration Time (msec): 7
Spectra Averaged: 10
Boxcar Smoothing: 5
Correct for Electrical Dark: Enabled
Time Normalized: Disabled
Dual-beam Reference: Disabled
Reference Channel: Master
Temperature: Not acquired
Spectrometer Type: S2000
ADC Type: USB2000
Number of Pixels in File: 2048
Graph Title: 
>>>>>Begin Spectral Data<<<<<
180.30	0.000
180.67	0.000
181.03	90.727
181.40	411547.619
181.77	-1755.270
182.14	-209.705
182.51	34.086
182.88	175.760
183.25	56.287
183.62	139.425
183.99	57.324
184.36	-75.668
184.73	18.133
185.10	38.055
185.46	36.171
185.83	-90.479
186.20	186.100
186.57	159.745
186.94	2.034
187.31	98.917
187.68	-112.094
188.05	233.008
188.42	116.240
188.78	26.166
189.15	24.914
189.52	40.313
189.89	22.866
190.26	5.438
190.63	-4.738
191.00	-10.443
191.37	-36.211
191.73	-34.314
192.10	-49.368
192.47	-16.988
192.84	-5.357
193.21	-29.266
193.58	-27.323
193.94	-26.479
194.31	-28.037
194.68	-24.788
195.05	-26.220
195.42	-12.270
195.79	-13.371
196.15	-7.918
196.52	-2.878
196.89	-16.216
197.26	-0.784
197.63	2.443
198.00	-4.601
198.36	5.551
198.73	0.748
199.10	-8.714
199.47	-9.603
199.84	-7.165
200.20	0.792
200.57	-41.934
200.94	-28.623
201.31	-2.874
201.68	-1.664
202.04	13.153
202.41	20.077
202.78	30.302
203.15	31.495
203.51	33.678
203.88	44.019
204.25	26.137
204.62	33.538
204.98	33.982
205.35	11.203
205.72	-9.887
206.09	-8.745
206.46	-29.403
206.82	-40.431
207.19	-49.252
207.56	-47.860
207.92	-59.282
208.29	-77.140
208.66	-67.218
209.03	-43.860
209.39	-40.896
209.76	-29.630
210.13	-34.265
210.50	-29.799
210.86	-32.153
211.23	-24.016
211.60	-18.274
211.96	-32.043
212.33	-15.706
212.70	-18.509
213.07	-22.062
213.43	-29.846
213.80	-33.391
214.17	-25.837
214.53	-15.469
214.90	-14.703
215.27	-16.469
215.63	-18.970
216.00	-18.722
216.37	-9.339
216.74	-1.245
217.10	5.561
217.47	20.403
217.84	10.723
218.20	-12.173
218.57	-22.659
218.94	-21.552
219.30	-18.055
219.67	-21.394
220.04	-18.733
220.40	-30.965
220.77	-32.675
221.13	-34.166
221.50	-38.026
221.87	-24.040
222.23	-28.461
222.60	-19.396
222.97	-25.348
223.33	-23.944
223.70	-22.337
224.07	-17.438
224.43	-13.117
224.80	-12.583
225.16	-7.161
225.53	-2.856
225.90	-6.040
226.26	-5.041
226.63	-11.696
226.99	-7.730
227.36	-7.189
227.73	-8.195
228.09	-9.679
228.46	-9.629
228.82	-8.536
229.19	-10.811
229.56	-13.559
229.92	-13.297
230.29	-12.020
230.65	-7.829
231.02	-10.017
231.38	-9.038
231.75	-8.034
232.12	-7.281
232.48	-6.511
232.85	-5.026
233.21	-4.098
233.58	-3.251
233.94	-3.003
234.31	-5.464
234.68	-4.865
235.04	-0.198
235.41	1.649
235.77	4.143
236.14	5.492
236.50	6.804
236.87	4.081
237.23	4.013
237.60	1.427
237.96	2.408
238.33	3.010
238.69	2.399
239.06	1.514
239.42	1.055
239.79	0.599
240.15	0.207
240.52	-0.452
240.88	0.057
241.25	-0.008
241.61	1.862
241.98	1.418
242.34	1.989
242.71	2.324
243.07	1.909
243.44	1.535
243.80	1.753
244.17	1.599
244.53	1.812
244.90	1.773
245.26	2.117
245.63	1.618
245.99	1.793
246.36	1.349
246.72	1.058
247.09	1.169
247.45	1.072
247.81	0.867
248.18	1.093
248.54	0.533
248.91	0.304
249.27	0.021
249.64	0.064
250.00	-0.662
250.36	-0.374
250.73	-0.158
251.09	-0.332
251.46	-0.069
251.82	0.402
252.19	0.195
252.55	0.525
252.91	0.654
253.28	1.309
253.64	2.205
254.01	3.018
254.37	2.977
254.73	2.728
255.10	3.025
255.46	3.192
255.83	3.288
256.19	3.282
256.55	3.447
256.92	3.542
257.28	3.076
257.65	2.836
258.01	2.618
258.37	2.553
258.74	2.666
259.10	2.469
259.46	2.336
259.83	2.035
260.19	1.945
260.55	1.883
260.92	1.674
261.28	1.469
261.64	1.343
262.01	1.436
262.37	1.632
262.73	1.469
263.10	1.187
263.46	0.987
263.82	0.717
264.19	0.964
264.55	1.366
264.91	1.983
265.28	2.250
265.64	2.270
266.00	1.889
266.37	2.046
266.73	1.935
267.09	2.084
267.46	2.244
267.82	2.292
268.18	2.569
268.54	1.833
268.91	1.119
269.27	1.326
269.63	1.185
270.00	1.754
270.36	1.698
270.72	1.626
271.08	1.704
271.45	1.699
271.81	1.632
272.17	1.252
272.53	1.436
272.90	1.850
273.26	1.601
273.62	1.513
273.98	1.153
274.35	0.884
274.71	1.046
275.07	0.838
275.43	0.883
275.80	0.987
276.16	0.749
276.52	0.840
276.88	0.567
277.25	0.682
277.61	0.666
277.97	0.319
278.33	0.583
278.69	0.626
279.06	0.710
279.42	0.766
279.78	0.616
280.14	0.846
280.50	0.776
280.87	1.233
281.23	1.365
281.59	1.614
281.95	1.839
282.31	1.649
282.68	1.499
283.04	1.629
283.40	1.478
283.76	1.685
284.12	1.703
284.48	1.741
284.85	1.450
285.21	1.209
285.57	1.001
285.93	1.261
286.29	1.311
286.65	1.367
287.02	1.164
287.38	1.185
287.74	1.180
288.10	1.308
288.46	1.335
288.82	1.232
289.18	1.261
289.54	1.347
289.91	1.058
290.27	1.067
290.63	1.061
290.99	1.299
291.35	1.463
291.71	1.395
292.07	1.272
292.43	1.180
292.79	1.312
293.16	1.450
293.52	1.265
293.88	1.458
294.24	1.181
294.60	1.349
294.96	1.296
295.32	1.350
295.68	1.447
296.04	1.432
296.40	1.473
296.76	1.372
297.12	1.227
297.49	1.290
297.85	1.193
298.21	1.487
298.57	1.264
298.93	1.447
299.29	1.081
299.65	0.893
300.01	1.015
300.37	1.239
300.73	1.325
301.09	1.273
301.45	1.327
301.81	1.351
302.17	1.212
302.53	1.368
302.89	1.091
303.25	1.353
303.61	1.568
303.97	1.482
304.33	1.120
304.69	1.115
305.05	1.029
305.41	0.986
305.77	1.102
306.13	1.377
306.49	1.242
306.85	1.272
307.21	1.351
307.57	1.078
307.93	1.080
308.29	1.145
308.65	1.106
309.01	1.138
309.37	1.144
309.73	0.940
310.09	0.643
310.45	0.680
310.81	0.617
311.17	0.453
311.53	0.512
311.89	0.351
312.25	0.301
312.61	0.085
312.96	0.082
313.32	0.018
313.68	-0.040
314.04	0.026
314.40	-0.239
314.76	-0.300
315.12	-0.464
315.48	-0.573
315.84	-0.663
316.20	-0.603
316.56	-0.559
316.92	-0.545
317.27	-0.682
317.63	-0.736
317.99	-0.693
318.35	-0.456
318.71	-0.668
319.07	-0.621
319.43	-0.644
319.79	-0.672
320.15	-0.987
320.50	-1.016
320.86	-1.176
321.22	-1.292
321.58	-1.268
321.94	-1.389
322.30	-1.531
322.66	-1.381
323.01	-1.428
323.37	-1.296
323.73	-1.387
324.09	-1.231
324.45	-1.394
324.81	-1.320
325.17	-1.256
325.52	-1.272
325.88	-1.512
326.24	-1.603
326.60	-1.883
326.96	-1.903
327.31	-2.226
327.67	-2.146
328.03	-2.242
328.39	-2.165
328.75	-2.258
329.11	-2.281
329.46	-2.451
329.82	-2.187
330.18	-2.095
330.54	-1.956
330.90	-1.880
331.25	-1.713
331.61	-1.607
331.97	-1.638
332.33	-1.507
332.68	-1.408
333.04	-1.292
333.40	-1.168
333.76	-1.187
334.11	-1.223
334.47	-1.118
334.83	-1.252
335.19	-1.224
335.54	-1.271
335.90	-1.158
336.26	-1.231
336.62	-1.343
336.97	-1.561
337.33	-1.587
337.69	-1.707
338.05	-1.661
338.40	-1.620
338.76	-1.620
339.12	-1.762
339.48	-1.763
339.83	-1.667
340.19	-1.650
340.55	-1.564
340.90	-1.478
341.26	-1.382
341.62	-1.284
341.97	-1.367
342.33	-1.420
342.69	-1.378
343.04	-1.323
343.40	-1.355
343.76	-1.453
344.12	-1.465
344.47	-1.499
344.83	-1.448
345.19	-1.646
345.54	-1.745
345.90	-1.830
346.26	-1.758
346.61	-1.677
346.97	-1.663
347.32	-1.757
347.68	-1.894
348.04	-1.990
348.39	-1.970
348.75	-2.131
349.11	-2.137
349.46	-2.148
349.82	-2.038
350.18	-2.135
350.53	-2.271
350.89	-2.365
351.24	-2.240
351.60	-2.244
351.96	-2.182
352.31	-2.307
352.67	-2.141
353.02	-2.031
353.38	-1.985
353.74	-1.959
354.09	-1.876
354.45	-1.844
354.80	-1.776
355.16	-1.790
355.52	-1.707
355.87	-1.649
356.23	-1.508
356.58	-1.506
356.94	-1.549
357.29	-1.502
357.65	-1.488
358.00	-1.604
358.36	-1.529
358.72	-1.479
359.07	-1.510
359.43	-1.496
359.78	-1.501
360.14	-1.639
360.49	-1.771
360.85	-1.806
361.20	-1.958
361.56	-2.162
361.91	-2.181
362.27	-2.349
362.62	-2.468
362.98	-2.672
363.33	-2.799
363.69	-2.953
364.04	-2.968
364.40	-3.046
364.75	-3.055
365.11	-3.118
365.46	-3.050
365.82	-3.176
366.17	-3.257
366.53	-3.307
366.88	-3.237
367.24	-3.217
367.59	-3.196
367.95	-3.212
368.30	-3.147
368.66	-3.201
369.01	-3.128
369.37	-3.080
369.72	-2.941
370.08	-2.708
370.43	-2.580
370.78	-2.498
371.14	-2.424
371.49	-2.398
371.85	-2.341
372.20	-2.280
372.56	-2.295
372.91	-2.353
373.26	-2.488
373.62	-2.646
373.97	-2.749
374.33	-2.793
374.68	-2.860
375.03	-2.954
375.39	-3.021
375.74	-3.148
376.10	-3.186
376.45	-3.089
376.80	-3.033
377.16	-2.842
377.51	-2.668
377.87	-2.573
378.22	-2.479
378.57	-2.382
378.93	-2.282
379.28	-2.093
379.63	-1.845
379.99	-1.661
380.34	-1.551
380.70	-1.368
381.05	-1.276
381.40	-1.191
381.76	-1.195
382.11	-1.209
382.46	-1.129
382.82	-1.128
383.17	-1.175
383.52	-1.234
383.88	-1.328
384.23	-1.419
384.58	-1.492
384.94	-1.662
385.29	-1.749
385.64	-1.789
385.99	-1.862
386.35	-1.924
386.70	-1.948
387.05	-1.998
387.41	-2.006
387.76	-1.968
388.11	-1.947
388.47	-1.919
388.82	-1.824
389.17	-1.780
389.52	-1.685
389.88	-1.556
390.23	-1.461
390.58	-1.291
390.93	-1.099
391.29	-1.015
391.64	-0.992
391.99	-0.932
392.34	-0.916
392.70	-0.903
393.05	-0.885
393.40	-0.944
393.75	-1.005
394.11	-1.145
394.46	-1.343
394.81	-1.596
395.16	-1.761
395.52	-1.921
395.87	-2.180
396.22	-2.435
396.57	-2.677
396.92	-2.970
397.28	-3.222
397.63	-3.507
397.98	-3.726
398.33	-3.948
398.68	-4.064
399.04	-4.200
399.39	-4.355
399.74	-4.292
400.09	-4.304
400.44	-4.261
400.80	-4.142
401.15	-4.066
401.50	-3.921
401.85	-3.793
402.20	-3.675
402.55	-3.626
402.90	-3.570
403.26	-3.492
403.61	-3.546
403.96	-3.515
404.31	-3.527
404.66	-3.609
405.01	-3.642
405.36	-3.769
405.72	-3.846
406.07	-3.913
406.42	-3.998
406.77	-4.065
407.12	-4.134
407.47	-4.154
407.82	-4.197
408.17	-4.262
408.53	-4.275
408.88	-4.334
409.23	-4.332
409.58	-4.375
409.93	-4.414
410.28	-4.456
410.63	-4.511
410.98	-4.514
411.33	-4.490
411.68	-4.442
412.03	-4.368
412.38	-4.235
412.73	-4.047
413.09	-3.885
413.44	-3.657
413.79	-3.402
414.14	-3.057
414.49	-2.783
414.84	-2.476
415.19	-2.197
415.54	-1.926
415.89	-1.654
416.24	-1.406
416.59	-1.166
416.94	-0.921
417.29	-0.747
417.64	-0.563
417.99	-0.450
418.34	-0.296
418.69	-0.193
419.04	-0.112
419.39	-0.026
419.74	0.065
420.09	0.124
420.44	0.139
420.79	0.152
421.14	0.142
421.49	0.116
421.84	0.080
422.19	0.022
422.54	-0.039
422.89	-0.111
423.24	-0.239
423.59	-0.382
423.94	-0.588
424.29	-0.758
424.64	-0.948
424.99	-1.123
425.34	-1.294
425.68	-1.441
426.03	-1.588
426.38	-1.761
426.73	-1.900
427.08	-1.947
427.43	-2.005
427.78	-1.941
428.13	-1.890
428.48	-1.842
428.83	-1.801
429.18	-1.767
429.53	-1.722
429.87	-1.706
430.22	-1.639
430.57	-1.606
430.92	-1.624
431.27	-1.645
431.62	-1.710
431.97	-1.815
432.32	-1.904
432.67	-1.976
433.01	-2.077
433.36	-2.229
433.71	-2.334
434.06	-2.432
434.41	-2.486
434.76	-2.506
435.11	-2.458
435.45	-2.378
435.80	-2.252
436.15	-2.155
436.50	-2.048
436.85	-1.918
437.20	-1.797
437.54	-1.716
437.89	-1.693
438.24	-1.668
438.59	-1.674
438.94	-1.755
439.29	-1.839
439.63	-1.937
439.98	-2.018
440.33	-2.075
440.68	-2.148
441.03	-2.150
441.37	-2.109
441.72	-2.010
442.07	-1.900
442.42	-1.768
442.76	-1.600
443.11	-1.458
443.46	-1.339
443.81	-1.216
444.16	-1.127
444.50	-1.096
444.85	-1.100
445.20	-1.157
445.55	-1.281
445.89	-1.430
446.24	-1.636
446.59	-1.884
446.94	-2.130
447.28	-2.376
447.63	-2.668
447.98	-2.962
448.32	-3.172
448.67	-3.387
449.02	-3.527
449.37	-3.638
449.71	-3.682
450.06	-3.653
450.41	-3.603
450.75	-3.571
451.10	-3.550
451.45	-3.540
451.79	-3.524
452.14	-3.529
452.49	-3.552
452.84	-3.592
453.18	-3.617
453.53	-3.626
453.88	-3.635
454.22	-3.575
454.57	-3.441
454.92	-3.287
455.26	-3.069
455.61	-2.866
455.95	-2.654
456.30	-2.440
456.65	-2.246
456.99	-2.049
457.34	-1.912
457.69	-1.785
458.03	-1.727
458.38	-1.741
458.73	-1.793
459.07	-1.928
459.42	-2.084
459.76	-2.290
460.11	-2.523
460.46	-2.748
460.80	-3.039
461.15	-3.320
461.49	-3.570
461.84	-3.799
462.19	-3.971
462.53	-4.061
462.88	-4.084
463.22	-4.064
463.57	-4.019
463.91	-3.967
464.26	-3.925
464.61	-3.808
464.95	-3.731
465.30	-3.693
465.64	-3.673
465.99	-3.721
466.33	-3.776
466.68	-3.845
467.02	-3.928
467.37	-4.025
467.71	-4.107
468.06	-4.202
468.41	-4.335
468.75	-4.458
469.10	-4.611
469.44	-4.783
469.79	-4.865
470.13	-4.967
470.48	-5.081
470.82	-5.189
471.17	-5.273
471.51	-5.361
471.86	-5.457
472.20	-5.574
472.55	-5.657
472.89	-5.701
473.23	-5.710
473.58	-5.755
473.92	-5.757
474.27	-5.743
474.61	-5.738
474.96	-5.719
475.30	-5.722
475.65	-5.689
475.99	-5.635
476.34	-5.607
476.68	-5.555
477.02	-5.484
477.37	-5.372
477.71	-5.230
478.06	-4.938
478.40	-4.448
478.75	-3.806
479.09	-3.147
479.43	-2.530
479.78	-1.979
480.12	-1.479
480.47	-1.064
480.81	-0.690
481.15	-0.361
481.50	-0.063
481.84	0.175
482.19	0.354
482.53	0.459
482.87	0.518
483.22	0.517
483.56	0.487
483.90	0.407
484.25	0.324
484.59	0.214
484.94	0.089
485.28	-0.066
485.62	-0.241
485.97	-0.428
486.31	-0.601
486.65	-0.765
487.00	-0.914
487.34	-1.068
487.68	-1.191
488.03	-1.318
488.37	-1.431
488.71	-1.533
489.06	-1.629
489.40	-1.717
489.74	-1.822
490.09	-1.959
490.43	-2.134
490.77	-2.354
491.11	-2.598
491.46	-2.859
491.80	-3.135
492.14	-3.419
492.49	-3.721
492.83	-4.040
493.17	-4.367
493.51	-4.660
493.86	-4.934
494.20	-5.113
494.54	-5.190
494.88	-5.184
495.23	-5.146
495.57	-5.099
495.91	-5.083
496.25	-5.088
496.60	-5.083
496.94	-5.113
497.28	-5.168
497.62	-5.238
497.97	-5.356
498.31	-5.457
498.65	-5.555
498.99	-5.662
499.33	-5.750
499.68	-5.799
500.02	-5.851
500.36	-5.910
500.70	-5.941
501.04	-5.988
501.39	-5.989
501.73	-5.976
502.07	-5.947
502.41	-5.936
502.75	-5.935
503.09	-5.903
503.44	-5.864
503.78	-5.810
504.12	-5.758
504.46	-5.683
504.80	-5.584
505.14	-5.496
505.49	-5.385
505.83	-5.313
506.17	-5.254
506.51	-5.167
506.85	-5.135
507.19	-5.105
507.53	-5.055
507.87	-5.028
508.22	-5.016
508.56	-5.035
508.90	-5.069
509.24	-5.129
509.58	-5.174
509.92	-5.206
510.26	-5.257
510.60	-5.308
510.94	-5.394
511.28	-5.478
511.63	-5.534
511.97	-5.582
512.31	-5.585
512.65	-5.555
512.99	-5.478
513.33	-5.377
513.67	-5.234
514.01	-5.077
514.35	-4.867
514.69	-4.626
515.03	-4.403
515.37	-4.194
515.71	-4.005
516.05	-3.869
516.39	-3.776
516.73	-3.726
517.07	-3.715
517.41	-3.760
517.75	-3.842
518.09	-3.975
518.43	-4.158
518.77	-4.363
519.11	-4.585
519.45	-4.808
519.79	-5.029
520.13	-5.179
520.47	-5.283
520.81	-5.315
521.15	-5.286
521.49	-5.229
521.83	-5.101
522.17	-4.901
522.51	-4.673
522.85	-4.368
523.19	-3.968
523.53	-3.481
523.87	-3.011
524.21	-2.575
524.55	-2.214
524.89	-1.891
525.23	-1.597
525.57	-1.364
525.91	-1.159
526.25	-0.977
526.58	-0.844
526.92	-0.772
527.26	-0.744
527.60	-0.777
527.94	-0.855
528.28	-0.953
528.62	-1.066
528.96	-1.183
529.30	-1.302
529.64	-1.436
529.97	-1.589
530.31	-1.751
530.65	-1.901
530.99	-2.040
531.33	-2.142
531.67	-2.204
532.01	-2.245
532.35	-2.317
532.68	-2.420
533.02	-2.540
533.36	-2.673
533.70	-2.804
534.04	-2.922
534.38	-3.061
534.71	-3.208
535.05	-3.348
535.39	-3.493
535.73	-3.614
536.07	-3.644
536.41	-3.572
536.74	-3.427
537.08	-3.242
537.42	-3.050
537.76	-2.837
538.10	-2.607
538.43	-2.384
538.77	-2.183
539.11	-2.012
539.45	-1.861
539.79	-1.747
540.12	-1.695
540.46	-1.699
540.80	-1.746
541.14	-1.820
541.47	-1.941
541.81	-2.089
542.15	-2.258
542.49	-2.460
542.82	-2.652
543.16	-2.882
543.50	-3.123
543.84	-3.352
544.17	-3.531
544.51	-3.693
544.85	-3.836
545.18	-3.993
545.52	-4.158
545.86	-4.349
546.20	-4.566
546.53	-4.807
546.87	-5.020
547.21	-5.247
547.54	-5.454
547.88	-5.640
548.22	-5.795
548.55	-5.915
548.89	-5.957
549.23	-6.013
549.56	-6.011
549.90	-5.951
550.24	-5.899
550.57	-5.875
550.91	-5.817
551.25	-5.781
551.58	-5.784
551.92	-5.811
552.26	-5.870
552.59	-5.971
552.93	-6.040
553.27	-6.140
553.60	-6.217
553.94	-6.284
554.27	-6.332
554.61	-6.404
554.95	-6.453
555.28	-6.511
555.62	-6.486
555.95	-6.479
556.29	-6.417
556.63	-6.323
556.96	-6.277
557.30	-6.210
557.63	-6.160
557.97	-6.109
558.31	-6.035
558.64	-5.984
558.98	-5.930
559.31	-5.927
559.65	-5.899
559.98	-5.872
560.32	-5.861
560.65	-5.809
560.99	-5.735
561.33	-5.628
561.66	-5.506
562.00	-5.400
562.33	-5.273
562.67	-5.096
563.00	-4.931
563.34	-4.765
563.67	-4.628
564.01	-4.497
564.34	-4.355
564.68	-4.280
565.01	-4.248
565.35	-4.236
565.68	-4.215
566.02	-4.174
566.35	-4.177
566.69	-4.169
567.02	-4.116
567.36	-4.060
567.69	-3.984
568.03	-3.937
568.36	-3.835
568.69	-3.723
569.03	-3.602
569.36	-3.489
569.70	-3.391
570.03	-3.290
570.37	-3.183
570.70	-3.137
571.04	-3.085
571.37	-3.066
571.70	-3.040
572.04	-3.038
572.37	-3.029
572.71	-3.042
573.04	-3.034
573.37	-3.073
573.71	-3.128
574.04	-3.185
574.38	-3.230
574.71	-3.296
575.04	-3.382
575.38	-3.461
575.71	-3.546
576.05	-3.641
576.38	-3.724
576.71	-3.868
577.05	-3.975
577.38	-4.036
577.71	-4.129
578.05	-4.220
578.38	-4.301
578.71	-4.321
579.05	-4.352
579.38	-4.399
579.71	-4.410
580.05	-4.403
580.38	-4.367
580.71	-4.323
581.05	-4.304
581.38	-4.285
581.71	-4.226
582.05	-4.187
582.38	-4.135
582.71	-4.077
583.04	-4.012
583.38	-3.926
583.71	-3.815
584.04	-3.711
584.38	-3.601
584.71	-3.448
585.04	-3.269
585.37	-3.116
585.71	-2.870
586.04	-2.679
586.37	-2.473
586.70	-2.270
587.04	-2.129
587.37	-2.027
587.70	-1.913
588.03	-1.804
588.37	-1.721
588.70	-1.666
589.03	-1.633
589.36	-1.644
589.69	-1.642
590.03	-1.651
590.36	-1.682
590.69	-1.634
591.02	-1.585
591.35	-1.508
591.69	-1.405
592.02	-1.294
592.35	-1.139
592.68	-0.939
593.01	-0.765
593.35	-0.615
593.68	-0.464
594.01	-0.292
594.34	-0.168
594.67	-0.064
595.00	0.036
595.34	0.099
595.67	0.123
596.00	0.062
596.33	-0.007
596.66	-0.099
596.99	-0.202
597.32	-0.320
597.65	-0.408
597.99	-0.495
598.32	-0.539
598.65	-0.604
598.98	-0.614
599.31	-0.566
599.64	-0.443
599.97	-0.304
600.30	-0.093
600.63	0.134
600.96	0.349
601.30	0.516
601.63	0.679
601.96	0.772
602.29	0.891
602.62	0.952
602.95	1.014
603.28	1.031
603.61	1.030
603.94	0.945
604.27	0.892
604.60	0.824
604.93	0.779
605.26	0.749
605.59	0.779
605.92	0.744
606.25	0.782
606.58	0.766
606.91	0.814
607.24	0.865
607.57	0.928
607.90	0.917
608.23	0.936
608.56	0.909
608.89	0.828
609.22	0.724
609.55	0.638
609.88	0.490
610.21	0.367
610.54	0.243
610.87	0.070
611.20	-0.059
611.53	-0.164
611.86	-0.259
612.19	-0.335
612.52	-0.374
612.85	-0.362
613.18	-0.321
613.51	-0.306
613.84	-0.257
614.17	-0.236
614.49	-0.232
614.82	-0.210
615.15	-0.177
615.48	-0.188
615.81	-0.171
616.14	-0.137
616.47	-0.131
616.80	-0.173
617.13	-0.153
617.46	-0.225
617.78	-0.290
618.11	-0.309
618.44	-0.324
618.77	-0.364
619.10	-0.343
619.43	-0.385
619.76	-0.406
620.09	-0.410
620.41	-0.377
620.74	-0.326
621.07	-0.255
621.40	-0.093
621.73	0.075
622.06	0.210
622.38	0.402
622.71	0.573
623.04	0.797
623.37	0.956
623.70	1.118
624.02	1.265
624.35	1.383
624.68	1.532
625.01	1.616
625.34	1.682
625.66	1.752
625.99	1.805
626.32	1.771
626.65	1.729
626.98	1.724
627.30	1.722
627.63	1.671
627.96	1.680
628.29	1.645
628.61	1.606
628.94	1.570
629.27	1.560
629.60	1.495
629.92	1.548
630.25	1.599
630.58	1.621
630.91	1.645
631.23	1.710
631.56	1.699
631.89	1.743
632.21	1.755
632.54	1.792
632.87	1.782
633.19	1.817
633.52	1.809
633.85	1.756
634.18	1.708
634.50	1.628
634.83	1.539
635.16	1.505
635.48	1.415
635.81	1.365
636.14	1.269
636.46	1.196
636.79	1.147
637.11	1.074
637.44	1.049
637.77	1.007
638.09	0.946
638.42	0.986
