OOIBase32 Version 2.0.0.6 Data File
++++++++++++++++++++++++++++++++++++
Date: 01-23-2012, 23:06:26
User: Valued Ocean Optics Customer
Spectrometer Serial Number: USB2E2917
Spectrometer Channel: Master
Integration Time (msec): 5
Spectra Averaged: 10
Boxcar Smoothing: 5
Correct for Electrical Dark: Enabled
Time Normalized: Disabled
Dual-beam Reference: Disabled
Reference Channel: Master
Temperature: Not acquired
Spectrometer Type: S2000
ADC Type: USB2000
Number of Pixels in File: 2048
Graph Title: 
>>>>>Begin Spectral Data<<<<<
180.30	0.000
180.67	0.000
181.03	-24.795
181.40	766.012
181.77	-8778.593
182.14	80.183
182.51	-538.831
182.88	92.063
183.25	36.228
183.62	160.305
183.99	260.407
184.36	70.515
184.73	250.248
185.10	-19.408
185.46	-65.224
185.83	-680.662
186.20	2194.949
186.57	149.543
186.94	153.177
187.31	51.254
187.68	119.279
188.05	-16.151
188.42	11.864
188.78	68.682
189.15	328.426
189.52	-28.084
189.89	28.114
190.26	-10.704
190.63	21.892
191.00	24.032
191.37	22.268
191.73	31.976
192.10	33.376
192.47	30.505
192.84	34.788
193.21	36.827
193.58	33.583
193.94	25.869
194.31	27.937
194.68	14.578
195.05	7.397
195.42	10.461
195.79	6.546
196.15	1.701
196.52	-8.575
196.89	-0.450
197.26	-20.130
197.63	-18.040
198.00	-7.836
198.36	-9.416
198.73	-15.472
199.10	-7.496
199.47	-9.479
199.84	-34.601
200.20	-24.807
200.57	-14.515
200.94	-34.752
201.31	-18.230
201.68	-15.637
202.04	-13.592
202.41	-5.692
202.78	-10.770
203.15	-3.351
203.51	-3.459
203.88	15.733
204.25	2.568
204.62	-1.409
204.98	-2.613
205.35	-18.018
205.72	-10.788
206.09	2.991
206.46	-31.927
206.82	-5.357
207.19	-12.803
207.56	-38.947
207.92	-54.700
208.29	-67.631
208.66	-41.867
209.03	-38.703
209.39	-25.174
209.76	-36.649
210.13	-101.067
210.50	-71.628
210.86	-69.635
211.23	-81.083
211.60	-56.264
211.96	-43.143
212.33	-23.782
212.70	-38.277
213.07	-33.169
213.43	-78.808
213.80	-83.012
214.17	-40.810
214.53	-25.884
214.90	-28.015
215.27	-24.972
215.63	-16.741
216.00	-20.910
216.37	-28.337
216.74	-35.583
217.10	-31.547
217.47	-14.203
217.84	-2.756
218.20	-11.423
218.57	-5.903
218.94	-7.688
219.30	-7.777
219.67	-17.052
220.04	-11.606
220.40	-12.086
220.77	-7.542
221.13	-10.359
221.50	-10.790
221.87	-12.371
222.23	-11.681
222.60	-19.478
222.97	-13.787
223.33	-12.240
223.70	-10.427
224.07	-11.704
224.43	-10.274
224.80	-8.494
225.16	-8.246
225.53	-8.718
225.90	-11.689
226.26	-6.816
226.63	-5.050
226.99	-4.523
227.36	-1.716
227.73	0.390
228.09	0.554
228.46	2.047
228.82	2.292
229.19	2.974
229.56	5.249
229.92	7.855
230.29	6.734
230.65	5.933
231.02	3.952
231.38	-0.229
231.75	0.073
232.12	-1.553
232.48	-3.649
232.85	-3.126
233.21	-1.354
233.58	-4.261
233.94	-3.463
234.31	-2.903
234.68	-1.087
235.04	0.062
235.41	2.227
235.77	0.056
236.14	1.188
236.50	2.970
236.87	2.610
237.23	1.514
237.60	1.764
237.96	1.501
238.33	1.217
238.69	0.121
239.06	0.566
239.42	0.141
239.79	0.316
240.15	0.536
240.52	0.056
240.88	0.452
241.25	0.459
241.61	0.570
241.98	0.726
242.34	0.855
242.71	1.419
243.07	1.672
243.44	2.067
243.80	2.385
244.17	2.212
244.53	2.235
244.90	1.931
245.26	2.008
245.63	1.996
245.99	1.892
246.36	1.903
246.72	1.949
247.09	1.511
247.45	1.230
247.81	1.377
248.18	1.554
248.54	1.567
248.91	1.299
249.27	1.462
249.64	2.056
250.00	2.470
250.36	2.440
250.73	2.314
251.09	2.443
251.46	2.291
251.82	1.824
252.19	1.687
252.55	1.163
252.91	1.911
253.28	1.696
253.64	1.072
254.01	0.584
254.37	0.655
254.73	1.118
255.10	1.699
255.46	2.258
255.83	2.336
256.19	2.368
256.55	2.516
256.92	2.509
257.28	2.601
257.65	2.709
258.01	2.874
258.37	2.689
258.74	2.496
259.10	2.239
259.46	2.011
259.83	1.969
260.19	2.023
260.55	2.051
260.92	1.994
261.28	1.845
261.64	1.813
262.01	1.629
262.37	2.243
262.73	2.477
263.10	2.802
263.46	2.872
263.82	2.968
264.19	2.940
264.55	2.823
264.91	2.550
265.28	2.467
265.64	1.991
266.00	1.781
266.37	1.446
266.73	1.299
267.09	1.030
267.46	1.041
267.82	0.868
268.18	0.720
268.54	0.848
268.91	0.986
269.27	1.201
269.63	1.732
270.00	1.915
270.36	1.878
270.72	1.822
271.08	2.011
271.45	2.052
271.81	2.148
272.17	2.280
272.53	2.336
272.90	2.343
273.26	2.376
273.62	2.121
273.98	2.042
274.35	1.861
274.71	1.969
275.07	2.011
275.43	2.012
275.80	1.910
276.16	1.921
276.52	1.882
276.88	2.042
277.25	1.889
277.61	1.781
277.97	1.577
278.33	1.700
278.69	1.572
279.06	1.404
279.42	1.528
279.78	1.588
280.14	1.534
280.50	1.612
280.87	1.573
281.23	1.515
281.59	1.567
281.95	1.760
282.31	1.880
282.68	1.958
283.04	1.983
283.40	2.058
283.76	2.127
284.12	2.349
284.48	2.165
284.85	2.108
285.21	2.269
285.57	2.264
285.93	2.219
286.29	2.091
286.65	2.133
287.02	2.386
287.38	2.334
287.74	2.308
288.10	2.078
288.46	2.132
288.82	2.102
289.18	2.082
289.54	2.141
289.91	2.232
290.27	2.366
290.63	2.420
290.99	2.196
291.35	2.160
291.71	2.106
292.07	2.002
292.43	1.953
292.79	1.980
293.16	1.851
293.52	2.029
293.88	2.189
294.24	2.250
294.60	2.096
294.96	2.114
295.32	2.097
295.68	2.239
296.04	2.354
296.40	2.428
296.76	2.387
297.12	2.430
297.49	2.177
297.85	1.996
298.21	1.909
298.57	1.906
298.93	2.000
299.29	1.892
299.65	1.834
300.01	1.820
300.37	1.834
300.73	1.972
301.09	1.973
301.45	2.196
301.81	2.260
302.17	2.393
302.53	2.259
302.89	2.162
303.25	2.314
303.61	2.228
303.97	2.086
304.33	2.093
304.69	2.158
305.05	2.233
305.41	2.145
305.77	2.170
306.13	2.002
306.49	2.144
306.85	2.223
307.21	2.242
307.57	2.285
307.93	2.386
308.29	2.520
308.65	2.443
309.01	2.392
309.37	2.375
309.73	2.323
310.09	2.395
310.45	2.428
310.81	2.353
311.17	2.319
311.53	2.288
311.89	2.336
312.25	2.211
312.61	2.147
312.96	2.211
313.32	2.364
313.68	2.358
314.04	2.348
314.40	2.368
314.76	2.419
315.12	2.331
315.48	2.423
315.84	2.352
316.20	2.358
316.56	2.405
316.92	2.377
317.27	2.165
317.63	2.178
317.99	2.130
318.35	2.148
318.71	2.101
319.07	2.194
319.43	2.101
319.79	2.097
320.15	2.070
320.50	2.067
320.86	2.017
321.22	2.082
321.58	2.048
321.94	1.951
322.30	1.809
322.66	1.862
323.01	1.785
323.37	1.692
323.73	1.653
324.09	1.588
324.45	1.636
324.81	1.581
325.17	1.662
325.52	1.722
325.88	1.770
326.24	1.966
326.60	1.962
326.96	2.017
327.31	2.128
327.67	2.087
328.03	2.243
328.39	2.140
328.75	2.259
329.11	2.164
329.46	2.178
329.82	2.225
330.18	2.114
330.54	2.040
330.90	1.962
331.25	1.957
331.61	2.091
331.97	1.992
332.33	2.053
332.68	2.058
333.04	2.046
333.40	1.948
333.76	1.937
334.11	1.929
334.47	1.909
334.83	1.864
335.19	1.833
335.54	1.827
335.90	1.835
336.26	1.846
336.62	1.791
336.97	1.743
337.33	1.660
337.69	1.683
338.05	1.632
338.40	1.692
338.76	1.821
339.12	1.928
339.48	1.799
339.83	1.812
340.19	1.807
340.55	1.866
340.90	1.888
341.26	1.937
341.62	1.869
341.97	1.883
342.33	1.849
342.69	1.854
343.04	1.754
343.40	1.723
343.76	1.630
344.12	1.591
344.47	1.575
344.83	1.683
345.19	1.790
345.54	1.824
345.90	1.865
346.26	1.880
346.61	1.821
346.97	1.815
347.32	1.942
347.68	2.007
348.04	1.987
348.39	1.903
348.75	1.859
349.11	1.761
349.46	1.775
349.82	1.718
350.18	1.726
350.53	1.713
350.89	1.716
351.24	1.649
351.60	1.632
351.96	1.718
352.31	1.744
352.67	1.720
353.02	1.684
353.38	1.682
353.74	1.764
354.09	1.710
354.45	1.790
354.80	1.810
355.16	1.864
355.52	1.889
355.87	1.793
356.23	1.817
356.58	1.805
356.94	1.834
357.29	1.841
357.65	1.816
358.00	1.851
358.36	1.787
358.72	1.836
359.07	1.829
359.43	1.854
359.78	1.889
360.14	1.887
360.49	1.881
360.85	1.891
361.20	1.862
361.56	1.871
361.91	1.879
362.27	1.914
362.62	1.878
362.98	1.861
363.33	1.785
363.69	1.782
364.04	1.830
364.40	1.844
364.75	1.857
365.11	1.837
365.46	1.736
365.82	1.697
366.17	1.644
366.53	1.661
366.88	1.697
367.24	1.759
367.59	1.746
367.95	1.683
368.30	1.663
368.66	1.651
369.01	1.642
369.37	1.725
369.72	1.805
370.08	1.848
370.43	1.866
370.78	1.831
371.14	1.769
371.49	1.806
371.85	1.805
372.20	1.814
372.56	1.820
372.91	1.858
373.26	1.887
373.62	1.834
373.97	1.842
374.33	1.803
374.68	1.841
375.03	1.936
375.39	1.902
375.74	1.925
376.10	1.924
376.45	1.960
376.80	1.959
377.16	1.938
377.51	1.998
377.87	2.012
378.22	2.009
378.57	1.966
378.93	1.970
379.28	1.998
379.63	1.969
379.99	2.024
380.34	2.017
380.70	2.019
381.05	2.048
381.40	2.032
381.76	2.049
382.11	2.109
382.46	2.147
382.82	2.134
383.17	2.113
383.52	2.140
383.88	2.103
384.23	2.081
384.58	2.097
384.94	2.062
385.29	2.068
385.64	2.074
385.99	2.069
386.35	2.078
386.70	2.070
387.05	2.073
387.41	2.057
387.76	2.025
388.11	2.025
388.47	2.036
388.82	2.057
389.17	2.046
389.52	2.019
389.88	2.006
390.23	1.977
390.58	1.984
390.93	2.009
391.29	2.029
391.64	2.069
391.99	2.103
392.34	2.139
392.70	2.146
393.05	2.146
393.40	2.171
393.75	2.179
394.11	2.196
394.46	2.161
394.81	2.140
395.16	2.121
395.52	2.109
395.87	2.103
396.22	2.070
396.57	2.020
396.92	1.994
397.28	1.970
397.63	1.897
397.98	1.879
398.33	1.895
398.68	1.898
399.04	1.909
399.39	1.878
399.74	1.835
400.09	1.813
400.44	1.858
400.80	1.854
401.15	1.846
401.50	1.858
401.85	1.874
402.20	1.854
402.55	1.866
402.90	1.834
403.26	1.860
403.61	1.852
403.96	1.834
404.31	1.811
404.66	1.827
405.01	1.819
405.36	1.821
405.72	1.796
406.07	1.793
406.42	1.756
406.77	1.780
407.12	1.754
407.47	1.774
407.82	1.807
408.17	1.778
408.53	1.771
408.88	1.751
409.23	1.734
409.58	1.739
409.93	1.756
410.28	1.759
410.63	1.731
410.98	1.743
411.33	1.740
411.68	1.742
412.03	1.784
412.38	1.743
412.73	1.767
413.09	1.807
413.44	1.814
413.79	1.833
414.14	1.878
414.49	1.917
414.84	1.938
415.19	1.972
415.54	1.994
415.89	2.006
416.24	2.070
416.59	2.102
416.94	2.121
417.29	2.146
417.64	2.152
417.99	2.168
418.34	2.183
418.69	2.208
419.04	2.204
419.39	2.217
419.74	2.217
420.09	2.221
420.44	2.227
420.79	2.234
421.14	2.232
421.49	2.249
421.84	2.241
422.19	2.240
422.54	2.227
422.89	2.225
423.24	2.216
423.59	2.218
423.94	2.207
424.29	2.193
424.64	2.183
424.99	2.185
425.34	2.154
425.68	2.134
426.03	2.103
426.38	2.089
426.73	2.093
427.08	2.073
427.43	2.077
427.78	2.092
428.13	2.069
428.48	2.084
428.83	2.079
429.18	2.089
429.53	2.106
429.87	2.118
430.22	2.105
430.57	2.109
430.92	2.098
431.27	2.095
431.62	2.080
431.97	2.101
432.32	2.077
432.67	2.058
433.01	2.047
433.36	2.027
433.71	2.026
434.06	2.038
434.41	2.029
434.76	2.043
435.11	2.034
435.45	2.026
435.80	2.012
436.15	2.028
436.50	2.060
436.85	2.079
437.20	2.090
437.54	2.087
437.89	2.093
438.24	2.108
438.59	2.098
438.94	2.097
439.29	2.080
439.63	2.094
439.98	2.081
440.33	2.061
440.68	2.054
441.03	2.068
441.37	2.076
441.72	2.076
442.07	2.064
442.42	2.079
442.76	2.109
443.11	2.136
443.46	2.146
443.81	2.156
444.16	2.166
444.50	2.162
444.85	2.153
445.20	2.162
445.55	2.166
445.89	2.159
446.24	2.150
446.59	2.115
446.94	2.101
447.28	2.064
447.63	2.056
447.98	2.043
448.32	2.032
448.67	2.019
449.02	1.976
449.37	1.941
449.71	1.934
450.06	1.922
450.41	1.930
450.75	1.934
451.10	1.941
451.45	1.917
451.79	1.893
452.14	1.888
452.49	1.879
452.84	1.899
453.18	1.899
453.53	1.879
453.88	1.883
454.22	1.893
454.57	1.892
454.92	1.901
455.26	1.923
455.61	1.980
455.95	2.019
456.30	2.029
456.65	2.041
456.99	2.055
457.34	2.091
457.69	2.111
458.03	2.107
458.38	2.120
458.73	2.125
459.07	2.124
459.42	2.076
459.76	2.043
460.11	2.023
460.46	1.989
460.80	1.978
461.15	1.954
461.49	1.904
461.84	1.893
462.19	1.865
462.53	1.861
462.88	1.856
463.22	1.860
463.57	1.858
463.91	1.872
464.26	1.912
464.61	1.912
464.95	1.886
465.30	1.898
465.64	1.905
465.99	1.910
466.33	1.897
466.68	1.893
467.02	1.895
467.37	1.889
467.71	1.872
468.06	1.849
468.41	1.839
468.75	1.856
469.10	1.856
469.44	1.827
469.79	1.796
470.13	1.765
470.48	1.753
470.82	1.744
471.17	1.737
471.51	1.742
471.86	1.728
472.20	1.718
472.55	1.703
472.89	1.702
473.23	1.701
473.58	1.719
473.92	1.740
474.27	1.735
474.61	1.723
474.96	1.719
475.30	1.706
475.65	1.696
475.99	1.694
476.34	1.698
476.68	1.680
477.02	1.689
477.37	1.679
477.71	1.700
478.06	1.742
478.40	1.824
478.75	1.906
479.09	1.997
479.43	2.095
479.78	2.200
480.12	2.299
480.47	2.402
480.81	2.491
481.15	2.581
481.50	2.660
481.84	2.747
482.19	2.818
482.53	2.885
482.87	2.928
483.22	2.931
483.56	2.898
483.90	2.843
484.25	2.774
484.59	2.699
484.94	2.634
485.28	2.571
485.62	2.487
485.97	2.407
486.31	2.334
486.65	2.276
487.00	2.250
487.34	2.243
487.68	2.245
488.03	2.247
488.37	2.260
488.71	2.257
489.06	2.240
489.40	2.235
489.74	2.210
490.09	2.192
490.43	2.170
490.77	2.139
491.11	2.099
491.46	2.066
491.80	2.040
492.14	1.998
492.49	1.958
492.83	1.913
493.17	1.848
493.51	1.816
493.86	1.773
494.20	1.759
494.54	1.742
494.88	1.749
495.23	1.746
495.57	1.746
495.91	1.762
496.25	1.777
496.60	1.788
496.94	1.798
497.28	1.812
497.62	1.802
497.97	1.777
498.31	1.780
498.65	1.767
498.99	1.765
499.33	1.773
499.68	1.764
500.02	1.749
500.36	1.748
500.70	1.760
501.04	1.747
501.39	1.745
501.73	1.757
502.07	1.779
502.41	1.789
502.75	1.818
503.09	1.825
503.44	1.845
503.78	1.862
504.12	1.867
504.46	1.894
504.80	1.932
505.14	1.969
505.49	1.997
505.83	2.002
506.17	2.029
506.51	2.046
506.85	2.077
507.19	2.099
507.53	2.117
507.87	2.158
508.22	2.167
508.56	2.177
508.90	2.187
509.24	2.200
509.58	2.215
509.92	2.231
510.26	2.248
510.60	2.268
510.94	2.285
511.28	2.298
511.63	2.312
511.97	2.326
512.31	2.353
512.65	2.388
512.99	2.422
513.33	2.485
513.67	2.543
514.01	2.624
514.35	2.675
514.69	2.747
515.03	2.830
515.37	2.900
515.71	2.976
516.05	3.031
516.39	3.088
516.73	3.139
517.07	3.165
517.41	3.184
517.75	3.186
518.09	3.205
518.43	3.219
518.77	3.213
519.11	3.218
519.45	3.222
519.79	3.238
520.13	3.249
520.47	3.281
520.81	3.335
521.15	3.405
521.49	3.465
521.83	3.538
522.17	3.607
522.51	3.709
522.85	3.816
523.19	3.943
523.53	4.083
523.87	4.227
524.21	4.367
524.55	4.495
524.89	4.606
525.23	4.716
525.57	4.803
525.91	4.893
526.25	4.971
526.58	5.037
526.92	5.090
527.26	5.125
527.60	5.149
527.94	5.158
528.28	5.155
528.62	5.154
528.96	5.153
529.30	5.154
529.64	5.143
529.97	5.127
530.31	5.105
530.65	5.093
530.99	5.093
531.33	5.103
531.67	5.111
532.01	5.127
532.35	5.132
532.68	5.136
533.02	5.130
533.36	5.126
533.70	5.131
534.04	5.141
534.38	5.133
534.71	5.123
535.05	5.110
535.39	5.106
535.73	5.112
536.07	5.132
536.41	5.150
536.74	5.187
537.08	5.225
537.42	5.270
537.76	5.311
538.10	5.375
538.43	5.430
538.77	5.476
539.11	5.530
539.45	5.566
539.79	5.605
540.12	5.632
540.46	5.635
540.80	5.637
541.14	5.621
541.47	5.596
541.81	5.574
542.15	5.550
542.49	5.519
542.82	5.472
543.16	5.432
543.50	5.396
543.84	5.353
544.17	5.332
544.51	5.319
544.85	5.295
545.18	5.298
545.52	5.259
545.86	5.227
546.20	5.210
546.53	5.188
546.87	5.159
547.21	5.115
547.54	5.093
547.88	5.077
548.22	5.036
548.55	5.017
548.89	4.997
549.23	4.995
549.56	5.005
549.90	5.024
550.24	5.026
550.57	5.032
550.91	5.019
551.25	5.017
551.58	5.016
551.92	5.020
552.26	5.024
552.59	5.017
552.93	5.006
553.27	5.000
553.60	4.969
553.94	4.956
554.27	4.926
554.61	4.933
554.95	4.926
555.28	4.893
555.62	4.873
555.95	4.872
556.29	4.863
556.63	4.837
556.96	4.808
557.30	4.799
557.63	4.779
557.97	4.773
558.31	4.745
558.64	4.706
558.98	4.713
559.31	4.729
559.65	4.705
559.98	4.696
560.32	4.706
560.65	4.694
560.99	4.685
561.33	4.678
561.66	4.678
562.00	4.690
562.33	4.692
562.67	4.697
563.00	4.675
563.34	4.679
563.67	4.669
564.01	4.660
564.34	4.649
564.68	4.640
565.01	4.626
565.35	4.595
565.68	4.556
566.02	4.525
566.35	4.487
566.69	4.446
567.02	4.433
567.36	4.416
567.69	4.386
568.03	4.370
568.36	4.335
568.69	4.322
569.03	4.324
569.36	4.303
569.70	4.292
570.03	4.282
570.37	4.272
570.70	4.240
571.04	4.218
571.37	4.185
571.70	4.156
572.04	4.142
572.37	4.109
572.71	4.074
573.04	4.060
573.37	4.039
573.71	4.000
574.04	3.972
574.38	3.933
574.71	3.896
575.04	3.877
575.38	3.847
575.71	3.799
576.05	3.769
576.38	3.744
576.71	3.685
577.05	3.637
577.38	3.601
577.71	3.556
578.05	3.514
578.38	3.460
578.71	3.414
579.05	3.363
579.38	3.326
579.71	3.277
580.05	3.230
580.38	3.216
580.71	3.179
581.05	3.124
581.38	3.096
581.71	3.078
582.05	3.072
582.38	3.081
582.71	3.073
583.04	3.084
583.38	3.069
583.71	3.073
584.04	3.061
584.38	3.075
584.71	3.110
585.04	3.119
585.37	3.131
585.71	3.131
586.04	3.134
586.37	3.168
586.70	3.187
587.04	3.201
587.37	3.191
587.70	3.179
588.03	3.174
588.37	3.171
588.70	3.166
589.03	3.163
589.36	3.174
589.69	3.135
590.03	3.098
590.36	3.052
590.69	3.009
591.02	2.990
591.35	3.005
591.69	2.998
592.02	2.997
592.35	3.008
592.68	3.017
593.01	2.992
593.35	3.001
593.68	3.017
594.01	3.028
594.34	3.042
594.67	3.058
595.00	3.048
595.34	3.029
595.67	2.993
596.00	2.964
596.33	2.917
596.66	2.897
596.99	2.872
597.32	2.821
597.65	2.786
597.99	2.748
598.32	2.682
598.65	2.641
598.98	2.632
599.31	2.635
599.64	2.635
599.97	2.644
600.30	2.650
600.63	2.661
600.96	2.685
601.30	2.699
601.63	2.738
601.96	2.757
602.29	2.771
602.62	2.767
602.95	2.763
603.28	2.736
603.61	2.701
603.94	2.673
604.27	2.663
604.60	2.619
604.93	2.591
605.26	2.547
605.59	2.539
605.92	2.521
606.25	2.488
606.58	2.472
606.91	2.459
607.24	2.483
607.57	2.475
607.90	2.435
608.23	2.418
608.56	2.376
608.89	2.342
609.22	2.299
609.55	2.253
609.88	2.210
610.21	2.157
610.54	2.106
610.87	2.018
611.20	1.972
611.53	1.938
611.86	1.901
612.19	1.851
612.52	1.812
612.85	1.803
613.18	1.781
613.51	1.740
613.84	1.694
614.17	1.672
614.49	1.691
614.82	1.650
615.15	1.624
615.48	1.630
615.81	1.646
616.14	1.645
616.47	1.598
616.80	1.558
617.13	1.564
617.46	1.562
617.78	1.561
618.11	1.503
618.44	1.477
618.77	1.446
619.10	1.422
619.43	1.399
619.76	1.351
620.09	1.353
620.41	1.348
620.74	1.361
621.07	1.368
621.40	1.362
621.73	1.395
622.06	1.438
622.38	1.471
622.71	1.489
623.04	1.515
623.37	1.588
623.70	1.606
624.02	1.657
624.35	1.683
624.68	1.688
625.01	1.722
625.34	1.778
625.66	1.807
625.99	1.824
626.32	1.817
626.65	1.816
626.98	1.773
627.30	1.782
627.63	1.736
627.96	1.687
628.29	1.649
628.61	1.609
628.94	1.526
629.27	1.471
629.60	1.416
629.92	1.405
630.25	1.385
630.58	1.379
630.91	1.322
631.23	1.319
631.56	1.316
631.89	1.316
632.21	1.289
632.54	1.265
632.87	1.234
633.19	1.211
633.52	1.189
633.85	1.162
634.18	1.124
634.50	1.105
634.83	1.083
635.16	1.042
635.48	1.014
635.81	0.968
636.14	0.918
636.46	0.874
636.79	0.850
637.11	0.804
637.44	0.756
637.77	0.717
638.09	0.675
638.42	0.623
638.75	0.600
639.07	0.583
639.40	0.591
639.73	0.568
640.05	0.571
640.38	0.583
640.70	0.552
641.03	0.549
641.36	0.529
641.68	0.540
642.01	0.533
642.33	0.522
642.66	0.519
642.98	0.495
643.31	0.536
643.64	0.550
643.96	0.547
644.29	0.561
644.61	0.561
644.94	0.591
645.26	0.607
645.59	0.638
645.91	0.657
646.24	0.672
646.56	0.707
646.89	0.737
647.22	0.749
647.54	0.719
647.87	0.750
648.19	0.743
648.52	0.761
648.84	0.717
649.17	0.701
649.49	0.709
649.82	0.705
650.14	0.709
650.47	0.688
650.79	0.694
651.11	0.716
651.44	0.719
651.76	0.687
652.09	0.712
652.41	0.782
652.74	0.805
653.06	0.791
653.39	0.821
653.71	0.828
654.04	0.805
654.36	0.806
654.68	0.850
655.01	0.894
655.33	0.985
655.66	0.992
655.98	1.019
656.30	1.030
656.63	1.083
656.95	1.084
657.28	1.119
657.60	1.123
657.92	1.134
658.25	1.119
