OOIBase32 Version 2.0.0.6 Data File
++++++++++++++++++++++++++++++++++++
Date: 01-23-2012, 23:04:17
User: Valued Ocean Optics Customer
Spectrometer Serial Number: USB2E2917
Spectrometer Channel: Master
Integration Time (msec): 5
Spectra Averaged: 10
Boxcar Smoothing: 5
Correct for Electrical Dark: Enabled
Time Normalized: Disabled
Dual-beam Reference: Disabled
Reference Channel: Master
Temperature: Not acquired
Spectrometer Type: S2000
ADC Type: USB2000
Number of Pixels in File: 2048
Graph Title: 
>>>>>Begin Spectral Data<<<<<
180.30	0.000
180.67	0.000
181.03	-23.813
181.40	-54.015
181.77	3316.208
182.14	89.897
182.51	141.593
182.88	124.044
183.25	67.236
183.62	52.642
183.99	238.575
184.36	-51.267
184.73	68.988
185.10	31.096
185.46	-332.006
185.83	-596.540
186.20	-34.356
186.57	200.327
186.94	152.638
187.31	18.962
187.68	29.815
188.05	85.164
188.42	87.519
188.78	243.972
189.15	826.444
189.52	-240.903
189.89	-88.685
190.26	-50.145
190.63	-12.917
191.00	1.264
191.37	6.039
191.73	24.983
192.10	21.358
192.47	21.277
192.84	25.629
193.21	31.674
193.58	30.990
193.94	30.645
194.31	23.161
194.68	17.912
195.05	7.878
195.42	25.742
195.79	34.276
196.15	47.770
196.52	35.821
196.89	35.213
197.26	7.134
197.63	13.925
198.00	21.973
198.36	15.368
198.73	-22.746
199.10	-11.099
199.47	-25.109
199.84	-46.797
200.20	-64.355
200.57	-52.753
200.94	-47.092
201.31	-39.782
201.68	-55.243
202.04	-58.308
202.41	-49.710
202.78	-33.504
203.15	-35.323
203.51	-35.607
203.88	-44.624
204.25	-38.993
204.62	-55.642
204.98	-61.833
205.35	-67.338
205.72	-55.890
206.09	-49.042
206.46	-114.546
206.82	-104.597
207.19	-109.947
207.56	-178.065
207.92	-139.445
208.29	-126.710
208.66	-82.322
209.03	-83.494
209.39	-54.529
209.76	-47.843
210.13	-84.368
210.50	-42.200
210.86	-22.483
211.23	-14.315
211.60	12.092
211.96	14.668
212.33	20.860
212.70	24.328
213.07	34.299
213.43	3.885
213.80	-14.007
214.17	0.301
214.53	-0.237
214.90	-7.722
215.27	-13.919
215.63	-19.201
216.00	-15.896
216.37	-27.361
216.74	-35.611
217.10	-30.112
217.47	-19.551
217.84	-9.909
218.20	-13.612
218.57	-11.816
218.94	-10.091
219.30	-7.496
219.67	-7.350
220.04	-9.422
220.40	-12.851
220.77	-17.695
221.13	-20.611
221.50	-17.793
221.87	-18.153
222.23	-17.754
222.60	-17.979
222.97	-16.701
223.33	-16.806
223.70	-15.303
224.07	-14.561
224.43	-8.424
224.80	-1.171
225.16	-2.184
225.53	-0.624
225.90	-3.788
226.26	-1.423
226.63	-0.880
226.99	-0.515
227.36	0.660
227.73	2.981
228.09	2.755
228.46	4.277
228.82	4.742
229.19	6.135
229.56	5.223
229.92	6.664
230.29	6.537
230.65	7.175
231.02	6.792
231.38	5.433
231.75	3.403
232.12	1.581
232.48	-1.405
232.85	-3.131
233.21	-3.730
233.58	-5.474
233.94	-4.965
234.31	-6.173
234.68	-4.970
235.04	-4.106
235.41	-2.125
235.77	-1.916
236.14	0.921
236.50	2.891
236.87	2.936
237.23	3.367
237.60	4.298
237.96	3.290
238.33	2.875
238.69	2.029
239.06	2.287
239.42	1.487
239.79	0.958
240.15	-0.253
240.52	-0.343
240.88	0.081
241.25	0.158
241.61	0.761
241.98	1.164
242.34	1.545
242.71	1.641
243.07	1.499
243.44	1.739
243.80	1.805
244.17	2.295
244.53	2.185
244.90	1.957
245.26	1.856
245.63	1.477
245.99	1.385
246.36	1.248
246.72	1.438
247.09	1.072
247.45	1.152
247.81	1.565
248.18	1.419
248.54	1.580
248.91	1.633
249.27	1.632
249.64	2.075
250.00	2.209
250.36	2.704
250.73	2.580
251.09	3.182
251.46	3.231
251.82	2.702
252.19	2.476
252.55	1.646
252.91	1.203
253.28	1.275
253.64	0.564
254.01	0.634
254.37	0.182
254.73	0.680
255.10	0.998
255.46	1.420
255.83	1.746
256.19	2.026
256.55	2.019
256.92	2.303
257.28	2.220
257.65	2.565
258.01	2.694
258.37	2.669
258.74	2.285
259.10	1.989
259.46	1.794
259.83	1.697
260.19	1.639
260.55	1.788
260.92	1.579
261.28	1.585
261.64	1.424
262.01	1.161
262.37	1.153
262.73	1.385
263.10	1.748
263.46	1.756
263.82	1.751
264.19	1.952
264.55	1.593
264.91	1.749
265.28	1.829
265.64	1.887
266.00	1.777
266.37	1.787
266.73	1.715
267.09	1.801
267.46	1.743
267.82	1.525
268.18	1.440
268.54	1.842
268.91	1.806
269.27	1.784
269.63	1.801
270.00	2.177
270.36	2.286
270.72	2.553
271.08	2.479
271.45	2.385
271.81	2.442
272.17	2.326
272.53	2.204
272.90	2.308
273.26	2.385
273.62	2.193
273.98	1.927
274.35	1.710
274.71	1.686
275.07	1.664
275.43	1.969
275.80	2.104
276.16	2.085
276.52	2.074
276.88	1.859
277.25	1.596
277.61	1.614
277.97	1.552
278.33	1.745
278.69	1.331
279.06	1.282
279.42	1.168
279.78	1.255
280.14	1.467
280.50	1.684
280.87	1.938
281.23	2.201
281.59	2.116
281.95	2.196
282.31	2.306
282.68	2.416
283.04	2.398
283.40	2.383
283.76	2.414
284.12	2.380
284.48	2.413
284.85	2.279
285.21	2.145
285.57	2.278
285.93	2.152
286.29	1.715
286.65	1.857
287.02	2.183
287.38	2.029
287.74	1.972
288.10	2.017
288.46	1.901
288.82	1.916
289.18	1.980
289.54	1.923
289.91	2.110
290.27	2.587
290.63	2.520
290.99	2.233
291.35	2.432
291.71	2.484
292.07	2.439
292.43	2.395
292.79	2.458
293.16	2.433
293.52	2.618
293.88	2.655
294.24	2.685
294.60	2.677
294.96	2.694
295.32	2.657
295.68	2.561
296.04	2.594
296.40	2.737
296.76	2.727
297.12	2.632
297.49	2.443
297.85	2.204
298.21	1.931
298.57	1.764
298.93	1.764
299.29	1.579
299.65	1.697
300.01	1.656
300.37	1.551
300.73	1.656
301.09	1.948
301.45	2.130
301.81	2.488
302.17	2.703
302.53	2.725
302.89	2.600
303.25	2.738
303.61	2.611
303.97	2.440
304.33	2.451
304.69	2.386
305.05	2.140
305.41	1.936
305.77	1.711
306.13	1.569
306.49	1.614
306.85	1.716
307.21	1.795
307.57	1.827
307.93	1.903
308.29	2.002
308.65	2.007
309.01	2.053
309.37	2.115
309.73	2.146
310.09	2.348
310.45	2.434
310.81	2.369
311.17	2.307
311.53	2.315
311.89	2.371
312.25	2.252
312.61	2.159
312.96	2.210
313.32	2.294
313.68	2.260
314.04	2.167
314.40	2.113
314.76	2.126
315.12	2.147
315.48	2.164
315.84	2.182
316.20	2.268
316.56	2.288
316.92	2.299
317.27	2.151
317.63	2.158
317.99	1.981
318.35	1.965
318.71	2.112
319.07	2.250
319.43	2.316
319.79	2.361
320.15	2.262
320.50	2.290
320.86	2.247
321.22	2.276
321.58	2.244
321.94	2.238
322.30	2.227
322.66	2.153
323.01	1.983
323.37	1.877
323.73	1.711
324.09	1.647
324.45	1.688
324.81	1.559
325.17	1.634
325.52	1.626
325.88	1.737
326.24	1.792
326.60	1.780
326.96	1.867
327.31	1.853
327.67	1.851
328.03	1.856
328.39	1.706
328.75	1.834
329.11	1.843
329.46	1.831
329.82	1.796
330.18	1.723
330.54	1.632
330.90	1.477
331.25	1.431
331.61	1.547
331.97	1.550
332.33	1.650
332.68	1.650
333.04	1.710
333.40	1.650
333.76	1.611
334.11	1.679
334.47	1.764
334.83	1.821
335.19	1.856
335.54	1.860
335.90	1.866
336.26	1.893
336.62	1.813
336.97	1.637
337.33	1.599
337.69	1.701
338.05	1.571
338.40	1.501
338.76	1.506
339.12	1.571
339.48	1.511
339.83	1.511
340.19	1.468
340.55	1.484
340.90	1.492
341.26	1.579
341.62	1.430
341.97	1.479
342.33	1.525
342.69	1.586
343.04	1.543
343.40	1.479
343.76	1.449
344.12	1.448
344.47	1.503
344.83	1.550
345.19	1.535
345.54	1.636
345.90	1.689
346.26	1.706
346.61	1.658
346.97	1.665
347.32	1.732
347.68	1.783
348.04	1.726
348.39	1.624
348.75	1.645
349.11	1.604
349.46	1.503
349.82	1.474
350.18	1.420
350.53	1.412
350.89	1.369
351.24	1.319
351.60	1.329
351.96	1.414
352.31	1.485
352.67	1.454
353.02	1.485
353.38	1.555
353.74	1.539
354.09	1.542
354.45	1.580
354.80	1.599
355.16	1.630
355.52	1.597
355.87	1.555
356.23	1.524
356.58	1.503
356.94	1.510
357.29	1.536
357.65	1.531
358.00	1.506
358.36	1.484
358.72	1.510
359.07	1.514
359.43	1.557
359.78	1.618
360.14	1.658
360.49	1.639
360.85	1.647
361.20	1.597
361.56	1.594
361.91	1.620
362.27	1.625
362.62	1.633
362.98	1.657
363.33	1.613
363.69	1.544
364.04	1.563
364.40	1.614
364.75	1.574
365.11	1.565
365.46	1.536
365.82	1.532
366.17	1.510
366.53	1.497
366.88	1.476
367.24	1.536
367.59	1.554
367.95	1.506
368.30	1.484
368.66	1.463
369.01	1.451
369.37	1.465
369.72	1.509
370.08	1.554
370.43	1.571
370.78	1.580
371.14	1.493
371.49	1.475
371.85	1.479
372.20	1.532
372.56	1.573
372.91	1.620
373.26	1.644
373.62	1.590
373.97	1.572
374.33	1.544
374.68	1.547
375.03	1.587
375.39	1.591
375.74	1.590
376.10	1.540
376.45	1.563
376.80	1.587
377.16	1.583
377.51	1.607
377.87	1.641
378.22	1.615
378.57	1.630
378.93	1.674
379.28	1.703
379.63	1.720
379.99	1.746
380.34	1.760
380.70	1.740
381.05	1.780
381.40	1.757
381.76	1.745
382.11	1.758
382.46	1.746
382.82	1.738
383.17	1.740
383.52	1.720
383.88	1.695
384.23	1.747
384.58	1.726
384.94	1.678
385.29	1.721
385.64	1.719
385.99	1.767
386.35	1.774
386.70	1.766
387.05	1.750
387.41	1.753
387.76	1.758
388.11	1.687
388.47	1.682
388.82	1.726
389.17	1.722
389.52	1.701
389.88	1.682
390.23	1.675
390.58	1.696
390.93	1.709
391.29	1.731
391.64	1.756
391.99	1.795
392.34	1.835
392.70	1.843
393.05	1.829
393.40	1.845
393.75	1.825
394.11	1.835
394.46	1.812
394.81	1.809
395.16	1.748
395.52	1.707
395.87	1.667
396.22	1.651
396.57	1.590
396.92	1.550
397.28	1.531
397.63	1.526
397.98	1.505
398.33	1.482
398.68	1.458
399.04	1.483
399.39	1.474
399.74	1.487
400.09	1.483
400.44	1.506
400.80	1.564
401.15	1.545
401.50	1.553
401.85	1.558
402.20	1.536
402.55	1.552
402.90	1.550
403.26	1.585
403.61	1.579
403.96	1.556
404.31	1.538
404.66	1.507
405.01	1.499
405.36	1.493
405.72	1.489
406.07	1.508
406.42	1.483
406.77	1.482
407.12	1.436
407.47	1.436
407.82	1.454
408.17	1.450
408.53	1.450
408.88	1.457
409.23	1.458
409.58	1.407
409.93	1.422
410.28	1.426
410.63	1.412
410.98	1.437
411.33	1.416
411.68	1.428
412.03	1.457
412.38	1.435
412.73	1.486
413.09	1.508
413.44	1.560
413.79	1.589
414.14	1.621
414.49	1.681
414.84	1.709
415.19	1.750
415.54	1.781
415.89	1.800
416.24	1.854
416.59	1.857
416.94	1.882
417.29	1.915
417.64	1.905
417.99	1.925
418.34	1.922
418.69	1.948
419.04	1.947
419.39	1.946
419.74	1.959
420.09	1.968
420.44	1.976
420.79	1.976
421.14	1.982
421.49	1.995
421.84	1.990
422.19	2.002
422.54	1.984
422.89	1.992
423.24	1.992
423.59	1.971
423.94	1.944
424.29	1.944
424.64	1.935
424.99	1.905
425.34	1.876
425.68	1.861
426.03	1.822
426.38	1.792
426.73	1.779
427.08	1.768
427.43	1.774
427.78	1.796
428.13	1.772
428.48	1.768
428.83	1.790
429.18	1.811
429.53	1.820
429.87	1.822
430.22	1.834
430.57	1.849
430.92	1.834
431.27	1.851
431.62	1.830
431.97	1.848
432.32	1.838
432.67	1.814
433.01	1.782
433.36	1.767
433.71	1.774
434.06	1.756
434.41	1.730
434.76	1.737
435.11	1.714
435.45	1.729
435.80	1.723
436.15	1.746
436.50	1.771
436.85	1.807
437.20	1.807
437.54	1.801
437.89	1.821
438.24	1.830
438.59	1.838
438.94	1.843
439.29	1.823
439.63	1.822
439.98	1.803
440.33	1.775
440.68	1.768
441.03	1.782
441.37	1.816
441.72	1.814
442.07	1.806
442.42	1.812
442.76	1.833
443.11	1.858
443.46	1.861
443.81	1.883
444.16	1.910
444.50	1.913
444.85	1.903
445.20	1.877
445.55	1.878
445.89	1.878
446.24	1.860
446.59	1.822
446.94	1.807
447.28	1.786
447.63	1.760
447.98	1.731
448.32	1.706
448.67	1.688
449.02	1.660
449.37	1.624
449.71	1.632
450.06	1.623
450.41	1.630
450.75	1.623
451.10	1.622
451.45	1.600
451.79	1.577
452.14	1.573
452.49	1.572
452.84	1.580
453.18	1.598
453.53	1.576
453.88	1.577
454.22	1.573
454.57	1.579
454.92	1.589
455.26	1.623
455.61	1.662
455.95	1.692
456.30	1.709
456.65	1.733
456.99	1.756
457.34	1.787
457.69	1.806
458.03	1.823
458.38	1.826
458.73	1.830
459.07	1.817
459.42	1.791
459.76	1.771
460.11	1.755
460.46	1.727
460.80	1.688
461.15	1.643
461.49	1.612
461.84	1.584
462.19	1.564
462.53	1.542
462.88	1.545
463.22	1.544
463.57	1.529
463.91	1.522
464.26	1.526
464.61	1.526
464.95	1.523
465.30	1.525
465.64	1.535
465.99	1.541
466.33	1.549
466.68	1.539
467.02	1.552
467.37	1.558
467.71	1.546
468.06	1.545
468.41	1.540
468.75	1.538
469.10	1.534
469.44	1.519
469.79	1.486
470.13	1.450
470.48	1.438
470.82	1.417
471.17	1.421
471.51	1.405
471.86	1.402
472.20	1.396
472.55	1.393
472.89	1.384
473.23	1.371
473.58	1.386
473.92	1.395
474.27	1.387
474.61	1.371
474.96	1.369
475.30	1.389
475.65	1.369
475.99	1.363
476.34	1.377
476.68	1.374
477.02	1.389
477.37	1.394
477.71	1.436
478.06	1.472
478.40	1.559
478.75	1.630
479.09	1.716
479.43	1.814
479.78	1.917
480.12	2.003
480.47	2.100
480.81	2.188
481.15	2.270
481.50	2.344
481.84	2.429
482.19	2.491
482.53	2.550
482.87	2.593
483.22	2.596
483.56	2.567
483.90	2.522
484.25	2.457
484.59	2.390
484.94	2.330
485.28	2.272
485.62	2.202
485.97	2.133
486.31	2.069
486.65	2.014
487.00	1.993
487.34	1.987
487.68	1.991
488.03	1.997
488.37	1.998
488.71	1.995
489.06	1.978
489.40	1.974
489.74	1.960
490.09	1.948
490.43	1.914
490.77	1.885
491.11	1.845
491.46	1.809
491.80	1.785
492.14	1.745
492.49	1.719
492.83	1.675
493.17	1.613
493.51	1.562
493.86	1.521
494.20	1.503
494.54	1.478
494.88	1.487
495.23	1.487
495.57	1.488
495.91	1.506
496.25	1.501
496.60	1.501
496.94	1.504
497.28	1.506
497.62	1.496
497.97	1.484
498.31	1.482
498.65	1.465
498.99	1.453
499.33	1.455
499.68	1.455
500.02	1.455
500.36	1.465
500.70	1.463
501.04	1.456
501.39	1.455
501.73	1.467
502.07	1.493
502.41	1.509
502.75	1.537
503.09	1.535
503.44	1.541
503.78	1.556
504.12	1.574
504.46	1.608
504.80	1.641
505.14	1.678
505.49	1.717
505.83	1.723
506.17	1.755
506.51	1.775
506.85	1.805
507.19	1.837
507.53	1.864
507.87	1.886
508.22	1.897
508.56	1.924
508.90	1.922
509.24	1.934
509.58	1.945
509.92	1.962
510.26	1.979
510.60	1.987
510.94	1.991
511.28	2.006
511.63	2.027
511.97	2.050
512.31	2.072
512.65	2.126
512.99	2.166
513.33	2.239
513.67	2.287
514.01	2.354
514.35	2.429
514.69	2.522
515.03	2.584
515.37	2.668
515.71	2.739
516.05	2.801
516.39	2.848
516.73	2.892
517.07	2.924
517.41	2.956
517.75	2.973
518.09	3.004
518.43	3.006
518.77	3.018
519.11	3.013
519.45	3.021
519.79	3.046
520.13	3.068
520.47	3.118
520.81	3.162
521.15	3.241
521.49	3.313
521.83	3.381
522.17	3.457
522.51	3.544
522.85	3.660
523.19	3.799
523.53	3.946
523.87	4.111
524.21	4.237
524.55	4.374
524.89	4.482
525.23	4.595
525.57	4.690
525.91	4.787
526.25	4.876
526.58	4.952
526.92	5.003
527.26	5.041
527.60	5.059
527.94	5.085
528.28	5.086
528.62	5.100
528.96	5.098
529.30	5.105
529.64	5.102
529.97	5.107
530.31	5.105
530.65	5.114
530.99	5.115
531.33	5.134
531.67	5.140
532.01	5.177
532.35	5.186
532.68	5.199
533.02	5.204
533.36	5.215
533.70	5.205
534.04	5.201
534.38	5.196
534.71	5.207
535.05	5.198
535.39	5.208
535.73	5.205
536.07	5.233
536.41	5.266
536.74	5.303
537.08	5.342
537.42	5.417
537.76	5.474
538.10	5.546
538.43	5.601
538.77	5.665
539.11	5.726
539.45	5.775
539.79	5.807
540.12	5.847
540.46	5.860
540.80	5.871
541.14	5.855
541.47	5.834
541.81	5.815
542.15	5.791
542.49	5.759
542.82	5.725
543.16	5.687
543.50	5.669
543.84	5.631
544.17	5.618
544.51	5.599
544.85	5.594
545.18	5.602
545.52	5.580
545.86	5.571
546.20	5.575
546.53	5.558
546.87	5.544
547.21	5.504
547.54	5.478
547.88	5.458
548.22	5.434
548.55	5.424
548.89	5.399
549.23	5.405
549.56	5.417
549.90	5.432
550.24	5.446
550.57	5.459
550.91	5.454
551.25	5.471
551.58	5.453
551.92	5.454
552.26	5.427
552.59	5.421
552.93	5.421
553.27	5.413
553.60	5.381
553.94	5.351
554.27	5.328
554.61	5.334
554.95	5.322
555.28	5.340
555.62	5.337
555.95	5.348
556.29	5.354
556.63	5.321
556.96	5.302
557.30	5.289
557.63	5.262
557.97	5.237
558.31	5.213
558.64	5.176
558.98	5.155
559.31	5.150
559.65	5.133
559.98	5.109
560.32	5.095
560.65	5.074
560.99	5.051
561.33	5.046
561.66	5.052
562.00	5.049
562.33	5.054
562.67	5.057
563.00	5.040
563.34	5.042
563.67	5.036
564.01	5.027
564.34	5.015
564.68	5.003
565.01	4.982
565.35	4.955
565.68	4.930
566.02	4.904
566.35	4.860
566.69	4.827
567.02	4.802
567.36	4.765
567.69	4.747
568.03	4.725
568.36	4.693
568.69	4.663
569.03	4.645
569.36	4.624
569.70	4.597
570.03	4.599
570.37	4.584
570.70	4.562
571.04	4.537
571.37	4.492
571.70	4.467
572.04	4.443
572.37	4.421
572.71	4.380
573.04	4.354
573.37	4.329
573.71	4.272
574.04	4.231
574.38	4.168
574.71	4.129
575.04	4.101
575.38	4.046
575.71	3.999
576.05	3.959
576.38	3.919
576.71	3.845
577.05	3.791
577.38	3.755
577.71	3.687
578.05	3.639
578.38	3.586
578.71	3.536
579.05	3.510
579.38	3.479
579.71	3.453
580.05	3.433
580.38	3.424
580.71	3.402
581.05	3.369
581.38	3.359
581.71	3.365
582.05	3.366
582.38	3.372
582.71	3.356
583.04	3.352
583.38	3.326
583.71	3.324
584.04	3.337
584.38	3.326
584.71	3.342
585.04	3.367
585.37	3.370
585.71	3.366
586.04	3.372
586.37	3.394
586.70	3.397
587.04	3.449
587.37	3.452
587.70	3.445
588.03	3.465
588.37	3.491
588.70	3.481
589.03	3.471
589.36	3.471
589.69	3.449
590.03	3.430
590.36	3.420
590.69	3.358
591.02	3.333
591.35	3.305
591.69	3.288
592.02	3.272
592.35	3.279
592.68	3.281
593.01	3.265
593.35	3.259
593.68	3.249
594.01	3.250
594.34	3.254
594.67	3.252
595.00	3.275
595.34	3.247
595.67	3.210
596.00	3.174
596.33	3.111
596.66	3.077
596.99	3.056
597.32	3.003
597.65	2.966
597.99	2.948
598.32	2.904
598.65	2.838
598.98	2.825
599.31	2.789
599.64	2.782
599.97	2.816
600.30	2.849
600.63	2.855
600.96	2.901
601.30	2.925
601.63	2.938
601.96	2.952
602.29	2.960
602.62	2.964
602.95	2.961
603.28	2.966
603.61	2.934
603.94	2.904
604.27	2.896
604.60	2.858
604.93	2.829
605.26	2.805
605.59	2.770
605.92	2.768
606.25	2.740
606.58	2.729
606.91	2.684
607.24	2.674
607.57	2.645
607.90	2.605
608.23	2.556
608.56	2.515
608.89	2.477
609.22	2.460
609.55	2.391
609.88	2.323
610.21	2.276
610.54	2.219
610.87	2.168
611.20	2.105
611.53	2.052
611.86	2.014
612.19	1.961
612.52	1.916
612.85	1.875
613.18	1.854
613.51	1.823
613.84	1.794
614.17	1.798
614.49	1.796
614.82	1.786
615.15	1.763
615.48	1.763
615.81	1.739
616.14	1.733
616.47	1.697
616.80	1.656
617.13	1.647
617.46	1.639
617.78	1.620
618.11	1.595
618.44	1.599
618.77	1.581
619.10	1.559
619.43	1.571
619.76	1.520
620.09	1.520
620.41	1.517
620.74	1.529
621.07	1.536
621.40	1.533
621.73	1.553
622.06	1.565
622.38	1.598
622.71	1.622
623.04	1.664
623.37	1.737
623.70	1.760
624.02	1.838
624.35	1.906
624.68	1.922
625.01	1.952
625.34	1.989
625.66	1.998
625.99	2.010
626.32	2.024
626.65	2.009
626.98	1.990
627.30	1.986
627.63	1.939
627.96	1.867
628.29	1.802
628.61	1.751
628.94	1.697
629.27	1.668
629.60	1.633
629.92	1.624
630.25	1.598
630.58	1.566
630.91	1.555
631.23	1.522
631.56	1.521
631.89	1.517
632.21	1.519
632.54	1.509
632.87	1.480
633.19	1.426
633.52	1.369
633.85	1.364
634.18	1.319
634.50	1.273
634.83	1.260
635.16	1.212
635.48	1.188
635.81	1.144
636.14	1.086
636.46	1.061
636.79	1.025
637.11	0.983
637.44	0.872
637.77	0.839
638.09	0.772
638.42	0.727
638.75	0.680
639.07	0.657
639.40	0.631
639.73	0.581
640.05	0.547
640.38	0.574
640.70	0.526
641.03	0.545
641.36	0.537
641.68	0.578
642.01	0.562
642.33	0.557
642.66	0.546
642.98	0.523
643.31	0.543
643.64	0.542
643.96	0.548
644.29	0.596
644.61	0.618
644.94	0.651
645.26	0.645
645.59	0.685
645.91	0.714
646.24	0.748
646.56	0.785
646.89	0.806
647.22	0.811
647.54	0.764
647.87	0.762
648.19	0.746
648.52	0.723
648.84	0.724
649.17	0.685
649.49	0.675
649.82	0.673
650.14	0.656
650.47	0.654
650.79	0.677
651.11	0.707
651.44	0.719
651.76	0.728
652.09	0.770
652.41	0.789
652.74	0.809
653.06	0.799
653.39	0.820
653.71	0.881
654.04	0.904
654.36	0.918
654.68	0.966
655.01	1.004
655.33	1.028
655.66	1.006
655.98	1.017
656.30	1.028
656.63	1.072
656.95	1.058
657.28	1.038
657.60	1.025
657.92	1.011
658.25	0.941
