OOIBase32 Version 2.0.0.6 Data File
++++++++++++++++++++++++++++++++++++
Date: 01-23-2012, 23:08:19
User: Valued Ocean Optics Customer
Spectrometer Serial Number: USB2E2917
Spectrometer Channel: Master
Integration Time (msec): 5
Spectra Averaged: 10
Boxcar Smoothing: 5
Correct for Electrical Dark: Enabled
Time Normalized: Disabled
Dual-beam Reference: Disabled
Reference Channel: Master
Temperature: Not acquired
Spectrometer Type: S2000
ADC Type: USB2000
Number of Pixels in File: 2048
Graph Title: 
>>>>>Begin Spectral Data<<<<<
180.30	0.000
180.67	0.000
181.03	-1.322
181.40	123.487
181.77	-94.037
182.14	73.024
182.51	-152.931
182.88	68.494
183.25	38.325
183.62	60.313
183.99	124.357
184.36	118.819
184.73	258.797
185.10	165.426
185.46	-310.792
185.83	14.983
186.20	232.576
186.57	173.955
186.94	54.990
187.31	56.446
187.68	134.293
188.05	55.899
188.42	99.802
188.78	182.816
189.15	578.625
189.52	-130.707
189.89	-25.071
190.26	6.549
190.63	10.613
191.00	18.413
191.37	23.079
191.73	32.957
192.10	29.386
192.47	33.486
192.84	35.457
193.21	40.148
193.58	34.948
193.94	29.875
194.31	18.954
194.68	21.868
195.05	12.410
195.42	11.864
195.79	5.922
196.15	-6.671
196.52	-8.264
196.89	-16.551
197.26	-34.273
197.63	-3.874
198.00	11.821
198.36	17.489
198.73	-10.996
199.10	-18.337
199.47	-16.359
199.84	-27.059
200.20	-0.017
200.57	-5.782
200.94	-9.505
201.31	2.232
201.68	-17.977
202.04	-24.698
202.41	-17.213
202.78	-20.518
203.15	-17.381
203.51	-5.705
203.88	-0.017
204.25	-14.974
204.62	-15.419
204.98	-20.663
205.35	-22.956
205.72	-13.294
206.09	6.581
206.46	-37.159
206.82	-7.530
207.19	-10.736
207.56	-41.622
207.92	-43.015
208.29	-44.367
208.66	-23.488
209.03	-16.194
209.39	7.542
209.76	9.992
210.13	-17.477
210.50	-9.927
210.86	-12.562
211.23	-6.845
211.60	-5.782
211.96	-2.696
212.33	-5.102
212.70	-14.074
213.07	-27.101
213.43	-73.958
213.80	-77.958
214.17	-47.144
214.53	-28.433
214.90	-29.570
215.27	-34.028
215.63	-36.600
216.00	-32.764
216.37	-25.310
216.74	-30.965
217.10	-24.489
217.47	-22.030
217.84	-10.099
218.20	-1.522
218.57	2.473
218.94	4.568
219.30	4.833
219.67	0.208
220.04	-0.007
220.40	-2.433
220.77	-3.725
221.13	2.007
221.50	9.997
221.87	1.618
222.23	-4.218
222.60	-17.645
222.97	-18.257
223.33	-15.325
223.70	-11.371
224.07	-13.167
224.43	-14.687
224.80	-10.908
225.16	-14.957
225.53	-17.270
225.90	-14.985
226.26	-13.383
226.63	-9.326
226.99	-8.839
227.36	-8.187
227.73	-6.572
228.09	-7.009
228.46	-4.428
228.82	-3.354
229.19	-1.907
229.56	-0.587
229.92	0.974
230.29	1.624
230.65	1.201
231.02	0.461
231.38	-1.808
231.75	-2.853
232.12	-3.393
232.48	-7.448
232.85	-9.119
233.21	-9.279
233.58	-10.820
233.94	-11.092
234.31	-11.727
234.68	-9.925
235.04	-7.525
235.41	-4.867
235.77	-4.237
236.14	-3.956
236.50	-1.985
236.87	-1.039
237.23	-0.353
237.60	-0.120
237.96	-0.190
238.33	-0.345
238.69	-1.979
239.06	-2.807
239.42	-2.831
239.79	-2.576
240.15	-1.559
240.52	-1.070
240.88	-0.571
241.25	-0.380
241.61	0.014
241.98	0.052
242.34	0.037
242.71	0.620
243.07	0.980
243.44	1.107
243.80	0.981
244.17	0.686
244.53	0.141
244.90	-0.331
245.26	-0.462
245.63	-0.750
245.99	-1.050
246.36	-0.838
246.72	-0.737
247.09	-0.976
247.45	-1.027
247.81	-0.788
248.18	-0.814
248.54	-0.601
248.91	-0.737
249.27	-0.861
249.64	-0.215
250.00	0.105
250.36	-0.364
250.73	-1.024
251.09	-0.890
251.46	-1.232
251.82	-1.869
252.19	-1.844
252.55	-1.770
252.91	-1.037
253.28	-0.748
253.64	-1.685
254.01	-1.507
254.37	-0.565
254.73	0.333
255.10	0.968
255.46	1.455
255.83	1.721
256.19	1.652
256.55	1.562
256.92	1.263
257.28	1.025
257.65	1.323
258.01	1.230
258.37	0.913
258.74	0.654
259.10	0.274
259.46	-0.000
259.83	-0.151
260.19	0.022
260.55	0.051
260.92	-0.000
261.28	0.084
261.64	-0.097
262.01	-0.051
262.37	0.061
262.73	0.134
263.10	0.355
263.46	0.347
263.82	0.404
264.19	-0.104
264.55	-0.629
264.91	-0.624
265.28	-0.543
265.64	-0.510
266.00	-0.334
266.37	-0.363
266.73	-0.435
267.09	-0.572
267.46	-0.475
267.82	-0.651
268.18	-0.198
268.54	0.316
268.91	0.520
269.27	0.342
269.63	0.461
270.00	0.220
270.36	0.153
270.72	0.134
271.08	0.011
271.45	-0.144
271.81	-0.149
272.17	-0.421
272.53	-0.664
272.90	-0.722
273.26	-0.405
273.62	-0.698
273.98	-0.695
274.35	-0.712
274.71	-0.611
275.07	-0.340
275.43	-0.168
275.80	-0.175
276.16	-0.155
276.52	0.045
276.88	-0.013
277.25	-0.642
277.61	-0.666
277.97	-0.760
278.33	-0.621
278.69	-0.668
279.06	-0.686
279.42	-0.586
279.78	-0.387
280.14	-0.315
280.50	-0.259
280.87	-0.131
281.23	0.172
281.59	0.486
281.95	0.562
282.31	0.515
282.68	0.424
283.04	0.322
283.40	0.327
283.76	0.351
284.12	0.475
284.48	0.410
284.85	0.453
285.21	0.514
285.57	0.272
285.93	0.343
286.29	0.299
286.65	0.446
287.02	0.796
287.38	0.715
287.74	0.599
288.10	0.429
288.46	0.437
288.82	0.305
289.18	0.241
289.54	0.321
289.91	0.311
290.27	0.338
290.63	0.486
290.99	0.297
291.35	0.341
291.71	0.440
292.07	0.403
292.43	0.208
292.79	0.172
293.16	0.040
293.52	0.154
293.88	0.304
294.24	0.340
294.60	0.185
294.96	0.130
295.32	0.093
295.68	0.140
296.04	0.229
296.40	0.427
296.76	0.525
297.12	0.570
297.49	0.441
297.85	0.285
298.21	0.369
298.57	0.217
298.93	0.184
299.29	0.159
299.65	0.172
300.01	0.137
300.37	0.093
300.73	0.080
301.09	0.084
301.45	0.151
301.81	0.264
302.17	0.156
302.53	0.175
302.89	0.232
303.25	0.421
303.61	0.285
303.97	0.258
304.33	0.307
304.69	0.355
305.05	0.415
305.41	0.362
305.77	0.353
306.13	0.422
306.49	0.499
306.85	0.565
307.21	0.471
307.57	0.551
307.93	0.569
308.29	0.582
308.65	0.547
309.01	0.604
309.37	0.685
309.73	0.584
310.09	0.703
310.45	0.820
310.81	0.796
311.17	0.711
311.53	0.630
311.89	0.649
312.25	0.596
312.61	0.602
312.96	0.613
313.32	0.610
313.68	0.544
314.04	0.352
314.40	0.253
314.76	0.146
315.12	0.155
315.48	0.211
315.84	0.168
316.20	0.106
316.56	-0.039
316.92	-0.138
317.27	-0.237
317.63	-0.061
317.99	-0.045
318.35	-0.022
318.71	0.138
319.07	0.272
319.43	0.285
319.79	0.285
320.15	0.316
320.50	0.448
320.86	0.583
321.22	0.639
321.58	0.524
321.94	0.405
322.30	0.386
322.66	0.372
323.01	0.243
323.37	0.183
323.73	0.130
324.09	0.019
324.45	-0.005
324.81	-0.173
325.17	-0.074
325.52	-0.029
325.88	0.005
326.24	0.061
326.60	-0.011
326.96	0.051
327.31	-0.048
327.67	-0.062
328.03	0.027
328.39	-0.024
328.75	0.086
329.11	-0.003
329.46	0.026
329.82	0.130
330.18	0.047
330.54	-0.013
330.90	-0.083
331.25	-0.023
331.61	0.077
331.97	0.119
332.33	0.246
332.68	0.187
333.04	0.221
333.40	0.144
333.76	0.155
334.11	0.204
334.47	0.224
334.83	0.268
335.19	0.310
335.54	0.217
335.90	0.135
336.26	0.039
336.62	-0.014
336.97	-0.132
337.33	-0.152
337.69	-0.221
338.05	-0.305
338.40	-0.288
338.76	-0.211
339.12	-0.100
339.48	-0.097
339.83	-0.059
340.19	-0.087
340.55	0.015
340.90	0.013
341.26	0.031
341.62	0.046
341.97	0.060
342.33	0.037
342.69	-0.043
343.04	-0.125
343.40	-0.171
343.76	-0.211
344.12	-0.193
344.47	-0.177
344.83	-0.049
345.19	0.004
345.54	0.021
345.90	0.093
346.26	0.114
346.61	0.134
346.97	0.125
347.32	0.202
347.68	0.271
348.04	0.207
348.39	0.077
348.75	0.030
349.11	-0.043
349.46	-0.119
349.82	-0.161
350.18	-0.169
350.53	-0.189
350.89	-0.175
351.24	-0.212
351.60	-0.212
351.96	-0.130
352.31	-0.092
352.67	-0.103
353.02	-0.087
353.38	0.005
353.74	-0.020
354.09	-0.082
354.45	-0.096
354.80	-0.143
355.16	-0.120
355.52	-0.178
355.87	-0.263
356.23	-0.214
356.58	-0.209
356.94	-0.201
357.29	-0.197
357.65	-0.175
358.00	-0.136
358.36	-0.130
358.72	-0.101
359.07	-0.117
359.43	-0.057
359.78	0.042
360.14	-0.000
360.49	-0.033
360.85	0.021
361.20	-0.048
361.56	-0.039
361.91	-0.037
362.27	-0.020
362.62	0.001
362.98	0.061
363.33	0.037
363.69	-0.025
364.04	0.021
364.40	0.023
364.75	-0.036
365.11	-0.017
365.46	-0.071
365.82	-0.042
366.17	-0.036
366.53	-0.081
366.88	-0.097
367.24	-0.088
367.59	-0.072
367.95	-0.082
368.30	-0.092
368.66	-0.055
369.01	-0.074
369.37	-0.030
369.72	-0.022
370.08	0.030
370.43	0.083
370.78	0.061
371.14	0.017
371.49	0.045
371.85	0.033
372.20	0.100
372.56	0.090
372.91	0.108
373.26	0.120
373.62	0.068
373.97	0.038
374.33	0.032
374.68	0.039
375.03	0.112
375.39	0.077
375.74	0.099
376.10	0.087
376.45	0.111
376.80	0.150
377.16	0.116
377.51	0.141
377.87	0.104
378.22	0.038
378.57	0.017
378.93	-0.009
379.28	0.025
379.63	-0.003
379.99	0.021
380.34	-0.008
380.70	-0.036
381.05	-0.003
381.40	0.011
381.76	0.057
382.11	0.123
382.46	0.176
382.82	0.202
383.17	0.164
383.52	0.155
383.88	0.103
384.23	0.100
384.58	0.129
384.94	0.121
385.29	0.139
385.64	0.173
385.99	0.189
386.35	0.176
386.70	0.170
387.05	0.168
387.41	0.172
387.76	0.184
388.11	0.182
388.47	0.142
388.82	0.182
389.17	0.162
389.52	0.130
389.88	0.132
390.23	0.117
390.58	0.158
390.93	0.184
391.29	0.209
391.64	0.225
391.99	0.287
392.34	0.326
392.70	0.308
393.05	0.318
393.40	0.320
393.75	0.278
394.11	0.290
394.46	0.219
394.81	0.212
395.16	0.186
395.52	0.144
395.87	0.083
396.22	0.111
396.57	0.057
396.92	0.038
397.28	-0.005
397.63	-0.026
397.98	-0.066
398.33	-0.093
398.68	-0.114
399.04	-0.087
399.39	-0.092
399.74	-0.096
400.09	-0.163
400.44	-0.134
400.80	-0.120
401.15	-0.120
401.50	-0.101
401.85	-0.075
402.20	-0.048
402.55	-0.028
402.90	-0.075
403.26	-0.064
403.61	-0.089
403.96	-0.068
404.31	-0.081
404.66	-0.077
405.01	-0.074
405.36	-0.069
405.72	-0.083
406.07	-0.101
406.42	-0.124
406.77	-0.107
407.12	-0.104
407.47	-0.076
407.82	-0.083
408.17	-0.077
408.53	-0.092
408.88	-0.108
409.23	-0.114
409.58	-0.142
409.93	-0.117
410.28	-0.098
410.63	-0.113
410.98	-0.131
411.33	-0.126
411.68	-0.117
412.03	-0.103
412.38	-0.095
412.73	-0.061
413.09	-0.052
413.44	-0.001
413.79	0.024
414.14	0.057
414.49	0.109
414.84	0.143
415.19	0.170
415.54	0.190
415.89	0.205
416.24	0.237
416.59	0.267
416.94	0.295
417.29	0.311
417.64	0.316
417.99	0.322
418.34	0.334
418.69	0.353
419.04	0.344
419.39	0.356
419.74	0.363
420.09	0.363
420.44	0.361
420.79	0.362
421.14	0.367
421.49	0.381
421.84	0.375
422.19	0.381
422.54	0.368
422.89	0.382
423.24	0.370
423.59	0.367
423.94	0.351
424.29	0.352
424.64	0.335
424.99	0.312
425.34	0.276
425.68	0.249
426.03	0.198
426.38	0.181
426.73	0.153
427.08	0.144
427.43	0.137
427.78	0.154
428.13	0.128
428.48	0.136
428.83	0.132
429.18	0.134
429.53	0.150
429.87	0.164
430.22	0.159
430.57	0.186
430.92	0.181
431.27	0.181
431.62	0.172
431.97	0.176
432.32	0.176
432.67	0.172
433.01	0.150
433.36	0.144
433.71	0.130
434.06	0.132
434.41	0.096
434.76	0.095
435.11	0.089
435.45	0.080
435.80	0.080
436.15	0.086
436.50	0.113
436.85	0.150
437.20	0.161
437.54	0.170
437.89	0.175
438.24	0.197
438.59	0.194
438.94	0.180
439.29	0.176
439.63	0.177
439.98	0.162
440.33	0.137
440.68	0.120
441.03	0.120
441.37	0.134
441.72	0.143
442.07	0.146
442.42	0.164
442.76	0.193
443.11	0.201
443.46	0.215
443.81	0.227
444.16	0.252
444.50	0.254
444.85	0.247
445.20	0.240
445.55	0.230
445.89	0.216
446.24	0.197
446.59	0.164
446.94	0.149
447.28	0.126
447.63	0.099
447.98	0.075
448.32	0.054
448.67	0.031
449.02	0.003
449.37	-0.024
449.71	-0.036
450.06	-0.048
450.41	-0.047
450.75	-0.050
451.10	-0.054
451.45	-0.069
451.79	-0.103
452.14	-0.117
452.49	-0.118
452.84	-0.114
453.18	-0.108
453.53	-0.120
453.88	-0.124
454.22	-0.125
454.57	-0.119
454.92	-0.107
455.26	-0.080
455.61	-0.030
455.95	0.010
456.30	0.039
456.65	0.054
456.99	0.081
457.34	0.096
457.69	0.116
458.03	0.122
458.38	0.124
458.73	0.123
459.07	0.113
459.42	0.077
459.76	0.048
460.11	0.009
460.46	-0.025
460.80	-0.079
461.15	-0.097
461.49	-0.134
461.84	-0.150
462.19	-0.180
462.53	-0.195
462.88	-0.195
463.22	-0.194
463.57	-0.202
463.91	-0.202
464.26	-0.191
464.61	-0.169
464.95	-0.191
465.30	-0.208
465.64	-0.204
465.99	-0.196
466.33	-0.203
466.68	-0.207
467.02	-0.204
467.37	-0.215
467.71	-0.213
468.06	-0.211
468.41	-0.239
468.75	-0.238
469.10	-0.224
469.44	-0.246
469.79	-0.264
470.13	-0.304
470.48	-0.323
470.82	-0.344
471.17	-0.344
471.51	-0.364
471.86	-0.384
472.20	-0.385
472.55	-0.389
472.89	-0.392
473.23	-0.399
473.58	-0.404
473.92	-0.392
474.27	-0.407
474.61	-0.429
474.96	-0.432
475.30	-0.422
475.65	-0.435
475.99	-0.433
476.34	-0.427
476.68	-0.439
477.02	-0.427
477.37	-0.419
477.71	-0.390
478.06	-0.349
478.40	-0.273
478.75	-0.195
479.09	-0.118
479.43	-0.033
479.78	0.042
480.12	0.101
480.47	0.162
480.81	0.208
481.15	0.257
481.50	0.302
481.84	0.344
482.19	0.374
482.53	0.395
482.87	0.405
483.22	0.399
483.56	0.382
483.90	0.365
484.25	0.345
484.59	0.330
484.94	0.305
485.28	0.272
485.62	0.236
485.97	0.202
486.31	0.175
486.65	0.156
487.00	0.146
487.34	0.134
487.68	0.116
488.03	0.097
488.37	0.075
488.71	0.059
489.06	0.044
489.40	0.043
489.74	0.031
490.09	0.013
490.43	-0.017
490.77	-0.051
491.11	-0.087
491.46	-0.115
491.80	-0.153
492.14	-0.194
492.49	-0.217
492.83	-0.252
493.17	-0.311
493.51	-0.349
493.86	-0.395
494.20	-0.425
494.54	-0.454
494.88	-0.457
495.23	-0.454
495.57	-0.446
495.91	-0.433
496.25	-0.436
496.60	-0.437
496.94	-0.440
497.28	-0.454
497.62	-0.465
497.97	-0.477
498.31	-0.481
498.65	-0.496
498.99	-0.509
499.33	-0.500
499.68	-0.500
500.02	-0.508
500.36	-0.527
500.70	-0.531
501.04	-0.528
501.39	-0.525
501.73	-0.518
502.07	-0.501
502.41	-0.488
502.75	-0.472
503.09	-0.474
503.44	-0.464
503.78	-0.464
504.12	-0.447
504.46	-0.410
504.80	-0.385
505.14	-0.355
505.49	-0.323
505.83	-0.304
506.17	-0.282
506.51	-0.260
506.85	-0.236
507.19	-0.218
507.53	-0.194
507.87	-0.161
508.22	-0.158
508.56	-0.148
508.90	-0.145
509.24	-0.132
509.58	-0.124
509.92	-0.107
510.26	-0.101
510.60	-0.088
510.94	-0.075
511.28	-0.063
511.63	-0.044
511.97	-0.021
512.31	0.009
512.65	0.043
512.99	0.082
513.33	0.152
513.67	0.206
514.01	0.291
514.35	0.358
514.69	0.430
515.03	0.518
515.37	0.598
515.71	0.676
516.05	0.740
516.39	0.799
516.73	0.845
517.07	0.879
517.41	0.920
517.75	0.934
518.09	0.962
518.43	0.980
518.77	0.980
519.11	0.977
519.45	0.984
519.79	1.013
520.13	1.049
520.47	1.097
520.81	1.152
521.15	1.222
521.49	1.302
521.83	1.376
522.17	1.457
522.51	1.562
522.85	1.689
523.19	1.823
523.53	1.962
523.87	2.125
524.21	2.260
524.55	2.380
524.89	2.493
525.23	2.592
525.57	2.678
525.91	2.760
526.25	2.835
526.58	2.899
526.92	2.959
527.26	3.000
527.60	3.014
527.94	3.033
528.28	3.048
528.62	3.048
528.96	3.056
529.30	3.066
529.64	3.072
529.97	3.074
530.31	3.073
530.65	3.064
530.99	3.066
531.33	3.083
531.67	3.098
532.01	3.108
532.35	3.122
532.68	3.132
533.02	3.132
533.36	3.140
533.70	3.143
534.04	3.140
534.38	3.142
534.71	3.127
535.05	3.107
535.39	3.105
535.73	3.111
536.07	3.125
536.41	3.149
536.74	3.180
537.08	3.206
537.42	3.250
537.76	3.292
538.10	3.343
538.43	3.400
538.77	3.452
539.11	3.485
539.45	3.514
539.79	3.544
540.12	3.554
540.46	3.563
540.80	3.570
541.14	3.562
541.47	3.547
541.81	3.518
542.15	3.497
542.49	3.471
542.82	3.443
543.16	3.415
543.50	3.383
543.84	3.354
544.17	3.325
544.51	3.305
544.85	3.276
545.18	3.263
545.52	3.251
545.86	3.227
546.20	3.201
546.53	3.177
546.87	3.144
547.21	3.112
547.54	3.073
547.88	3.063
548.22	3.031
548.55	3.006
548.89	2.990
549.23	2.974
549.56	2.977
549.90	2.974
550.24	2.980
550.57	2.981
550.91	2.966
551.25	3.004
551.58	2.995
551.92	2.987
552.26	2.985
552.59	2.980
552.93	2.975
553.27	2.962
553.60	2.945
553.94	2.904
554.27	2.898
554.61	2.892
554.95	2.843
555.28	2.821
555.62	2.791
555.95	2.769
556.29	2.733
556.63	2.707
556.96	2.667
557.30	2.655
557.63	2.643
557.97	2.612
558.31	2.564
558.64	2.548
558.98	2.529
559.31	2.527
559.65	2.505
559.98	2.494
560.32	2.466
560.65	2.442
560.99	2.424
561.33	2.400
561.66	2.383
562.00	2.395
562.33	2.363
562.67	2.343
563.00	2.323
563.34	2.302
563.67	2.279
564.01	2.266
564.34	2.245
564.68	2.209
565.01	2.188
565.35	2.145
565.68	2.103
566.02	2.062
566.35	2.010
566.69	1.953
567.02	1.937
567.36	1.901
567.69	1.858
568.03	1.832
568.36	1.794
568.69	1.763
569.03	1.732
569.36	1.703
569.70	1.679
570.03	1.669
570.37	1.656
570.70	1.613
571.04	1.572
571.37	1.531
571.70	1.494
572.04	1.477
572.37	1.442
572.71	1.409
573.04	1.373
573.37	1.343
573.71	1.304
574.04	1.254
574.38	1.204
574.71	1.178
575.04	1.146
575.38	1.092
575.71	1.033
576.05	0.984
576.38	0.955
576.71	0.905
577.05	0.855
577.38	0.812
577.71	0.771
578.05	0.750
578.38	0.699
578.71	0.661
579.05	0.629
579.38	0.558
579.71	0.529
580.05	0.489
580.38	0.462
580.71	0.438
581.05	0.403
581.38	0.370
581.71	0.341
582.05	0.328
582.38	0.324
582.71	0.302
583.04	0.323
583.38	0.292
583.71	0.285
584.04	0.288
584.38	0.282
584.71	0.291
585.04	0.312
585.37	0.307
585.71	0.304
586.04	0.304
586.37	0.323
586.70	0.324
587.04	0.353
587.37	0.363
587.70	0.356
588.03	0.372
588.37	0.383
588.70	0.350
589.03	0.349
589.36	0.349
589.69	0.320
590.03	0.304
590.36	0.295
590.69	0.242
591.02	0.205
591.35	0.188
591.69	0.148
592.02	0.124
592.35	0.162
592.68	0.179
593.01	0.159
593.35	0.172
593.68	0.172
594.01	0.178
594.34	0.200
594.67	0.212
595.00	0.203
595.34	0.184
595.67	0.150
596.00	0.125
596.33	0.061
596.66	0.042
596.99	-0.008
597.32	-0.064
597.65	-0.121
597.99	-0.183
598.32	-0.258
598.65	-0.300
598.98	-0.313
599.31	-0.329
599.64	-0.342
599.97	-0.336
600.30	-0.342
600.63	-0.337
600.96	-0.306
601.30	-0.286
601.63	-0.247
601.96	-0.208
602.29	-0.202
602.62	-0.198
602.95	-0.189
603.28	-0.214
603.61	-0.254
603.94	-0.279
604.27	-0.280
604.60	-0.312
604.93	-0.325
605.26	-0.361
605.59	-0.385
605.92	-0.409
606.25	-0.431
606.58	-0.455
606.91	-0.492
607.24	-0.478
607.57	-0.495
607.90	-0.515
608.23	-0.543
608.56	-0.573
608.89	-0.619
609.22	-0.672
609.55	-0.712
609.88	-0.774
610.21	-0.830
610.54	-0.872
610.87	-0.932
611.20	-0.980
611.53	-1.051
611.86	-1.103
612.19	-1.190
612.52	-1.220
612.85	-1.243
613.18	-1.269
613.51	-1.312
613.84	-1.353
614.17	-1.381
614.49	-1.380
614.82	-1.420
615.15	-1.436
615.48	-1.438
615.81	-1.442
616.14	-1.436
616.47	-1.452
616.80	-1.492
617.13	-1.501
617.46	-1.542
617.78	-1.558
618.11	-1.599
618.44	-1.607
618.77	-1.634
619.10	-1.677
619.43	-1.694
619.76	-1.758
620.09	-1.763
620.41	-1.768
620.74	-1.734
621.07	-1.682
621.40	-1.661
621.73	-1.622
622.06	-1.601
622.38	-1.573
622.71	-1.520
623.04	-1.486
623.37	-1.427
623.70	-1.412
624.02	-1.332
624.35	-1.294
624.68	-1.298
625.01	-1.269
625.34	-1.272
625.66	-1.252
625.99	-1.223
626.32	-1.229
626.65	-1.238
626.98	-1.245
627.30	-1.236
627.63	-1.294
627.96	-1.378
628.29	-1.409
628.61	-1.471
628.94	-1.513
629.27	-1.548
629.60	-1.642
629.92	-1.647
630.25	-1.680
630.58	-1.713
630.91	-1.754
631.23	-1.783
631.56	-1.754
631.89	-1.779
632.21	-1.770
632.54	-1.792
632.87	-1.822
633.19	-1.814
633.52	-1.880
633.85	-1.906
634.18	-1.927
634.50	-1.981
634.83	-1.994
635.16	-2.079
635.48	-2.118
635.81	-2.175
636.14	-2.216
636.46	-2.267
636.79	-2.316
637.11	-2.352
637.44	-2.392
637.77	-2.440
638.09	-2.479
638.42	-2.529
638.75	-2.526
639.07	-2.521
639.40	-2.520
639.73	-2.535
640.05	-2.535
640.38	-2.506
640.70	-2.516
641.03	-2.506
641.36	-2.524
641.68	-2.511
642.01	-2.510
642.33	-2.493
642.66	-2.514
642.98	-2.543
643.31	-2.554
643.64	-2.542
643.96	-2.534
644.29	-2.503
644.61	-2.473
644.94	-2.454
645.26	-2.426
645.59	-2.392
645.91	-2.385
646.24	-2.349
646.56	-2.320
