OOIBase32 Version 2.0.0.6 Data File
++++++++++++++++++++++++++++++++++++
Date: 01-23-2012, 23:09:34
User: Valued Ocean Optics Customer
Spectrometer Serial Number: USB2E2917
Spectrometer Channel: Master
Integration Time (msec): 5
Spectra Averaged: 10
Boxcar Smoothing: 5
Correct for Electrical Dark: Enabled
Time Normalized: Disabled
Dual-beam Reference: Disabled
Reference Channel: Master
Temperature: Not acquired
Spectrometer Type: S2000
ADC Type: USB2000
Number of Pixels in File: 2048
Graph Title: 
>>>>>Begin Spectral Data<<<<<
180.30	0.000
180.67	0.000
181.03	52.909
181.40	52.834
181.77	-10264.908
182.14	32.139
182.51	-197.667
182.88	182.220
183.25	7.821
183.62	31.888
183.99	188.636
184.36	16.667
184.73	185.718
185.10	40.402
185.46	118.062
185.83	-598.190
186.20	-972.653
186.57	104.203
186.94	141.419
187.31	27.186
187.68	105.917
188.05	121.971
188.42	165.002
188.78	318.394
189.15	1037.518
189.52	-273.924
189.89	-83.252
190.26	-68.307
190.63	-27.940
191.00	-1.444
191.37	4.780
191.73	16.700
192.10	21.377
192.47	30.759
192.84	28.295
193.21	39.958
193.58	31.012
193.94	35.141
194.31	43.459
194.68	47.893
195.05	36.197
195.42	43.007
195.79	19.042
196.15	-2.913
196.52	-17.132
196.89	-13.023
197.26	-38.923
197.63	-4.242
198.00	-9.199
198.36	-37.078
198.73	-58.354
199.10	-44.743
199.47	-49.583
199.84	-32.947
200.20	-35.862
200.57	-30.950
200.94	-44.471
201.31	-48.256
201.68	-66.330
202.04	-57.097
202.41	-47.335
202.78	-63.576
203.15	-79.202
203.51	-66.106
203.88	-56.597
204.25	-46.191
204.62	-60.000
204.98	-71.272
205.35	-75.640
205.72	-71.431
206.09	-77.600
206.46	-141.710
206.82	-93.287
207.19	-74.334
207.56	-121.007
207.92	-109.614
208.29	-102.340
208.66	-68.623
209.03	-54.136
209.39	-18.514
209.76	-20.514
210.13	-26.325
210.50	-7.479
210.86	-5.867
211.23	-32.473
211.60	-21.179
211.96	-37.125
212.33	-32.798
212.70	-36.843
213.07	-26.509
213.43	-70.010
213.80	-59.473
214.17	-37.377
214.53	-29.248
214.90	-27.029
215.27	-16.269
215.63	-18.608
216.00	-9.991
216.37	0.836
216.74	-8.753
217.10	-3.484
217.47	3.465
217.84	4.148
218.20	-1.666
218.57	2.254
218.94	9.602
219.30	9.460
219.67	12.325
220.04	15.888
220.40	12.018
220.77	11.325
221.13	8.099
221.50	7.400
221.87	3.299
222.23	1.914
222.60	-2.217
222.97	-9.318
223.33	-9.055
223.70	-10.747
224.07	-14.195
224.43	-13.736
224.80	-7.853
225.16	-7.484
225.53	-7.368
225.90	-8.266
226.26	-6.070
226.63	-4.257
226.99	-3.329
227.36	-2.807
227.73	-0.824
228.09	-1.034
228.46	0.332
228.82	1.233
229.19	1.798
229.56	1.544
229.92	4.252
230.29	4.830
230.65	3.307
231.02	2.170
231.38	0.015
231.75	-2.398
232.12	-1.908
232.48	-4.917
232.85	-6.578
233.21	-5.765
233.58	-6.023
233.94	-7.218
234.31	-8.198
234.68	-8.146
235.04	-7.557
235.41	-6.626
235.77	-5.463
236.14	-4.564
236.50	-2.534
236.87	-2.322
237.23	-2.166
237.60	-2.941
237.96	-2.596
238.33	-1.651
238.69	-1.630
239.06	-1.426
239.42	-0.957
239.79	-1.362
240.15	-1.604
240.52	-2.027
240.88	-1.630
241.25	-2.237
241.61	-1.264
241.98	-1.141
242.34	-1.180
242.71	-0.472
243.07	-0.384
243.44	-0.414
243.80	0.096
244.17	0.290
244.53	0.351
244.90	0.086
245.26	0.320
245.63	0.095
245.99	0.118
246.36	-0.340
246.72	-0.319
247.09	-0.683
247.45	-0.677
247.81	-0.619
248.18	-0.769
248.54	-0.681
248.91	-0.855
249.27	-0.695
249.64	-0.671
250.00	-0.668
250.36	-0.570
250.73	-0.991
251.09	-0.274
251.46	-0.392
251.82	-0.460
252.19	-0.512
252.55	-0.556
252.91	-0.144
253.28	-0.180
253.64	-0.488
254.01	-0.254
254.37	0.649
254.73	1.336
255.10	1.378
255.46	1.449
255.83	1.058
256.19	0.933
256.55	0.907
256.92	1.118
257.28	1.019
257.65	1.177
258.01	0.964
258.37	0.788
258.74	0.481
259.10	0.201
259.46	0.015
259.83	0.127
260.19	0.223
260.55	0.139
260.92	-0.140
261.28	-0.088
261.64	0.048
262.01	0.148
262.37	-0.008
262.73	0.192
263.10	0.249
263.46	0.277
263.82	0.201
264.19	0.146
264.55	-0.040
264.91	-0.198
265.28	-0.430
265.64	-0.530
266.00	-0.414
266.37	0.002
266.73	-0.036
267.09	0.168
267.46	0.305
267.82	0.083
268.18	0.282
268.54	0.596
268.91	0.741
269.27	0.810
269.63	0.879
270.00	0.717
270.36	0.417
270.72	0.572
271.08	0.512
271.45	0.484
271.81	0.509
272.17	0.417
272.53	0.285
272.90	0.330
273.26	0.469
273.62	0.208
273.98	0.179
274.35	0.279
274.71	0.146
275.07	0.053
275.43	0.135
275.80	0.377
276.16	0.277
276.52	0.310
276.88	0.530
277.25	0.332
277.61	0.182
277.97	0.113
278.33	0.212
278.69	0.074
279.06	0.277
279.42	0.396
279.78	0.357
280.14	0.511
280.50	0.619
280.87	0.492
281.23	0.571
281.59	0.806
281.95	0.938
282.31	0.985
282.68	1.043
283.04	0.893
283.40	0.866
283.76	0.855
284.12	0.863
284.48	0.771
284.85	0.787
285.21	0.833
285.57	0.820
285.93	0.877
286.29	0.668
286.65	0.810
287.02	1.211
287.38	1.153
287.74	1.193
288.10	1.129
288.46	1.062
288.82	0.886
289.18	0.836
289.54	0.734
289.91	0.755
290.27	0.853
290.63	0.809
290.99	0.719
291.35	0.858
291.71	0.985
292.07	0.950
292.43	1.182
292.79	1.118
293.16	1.166
293.52	1.375
293.88	1.335
294.24	1.389
294.60	1.275
294.96	1.161
295.32	1.197
295.68	1.084
296.04	1.121
296.40	1.074
296.76	1.232
297.12	1.150
297.49	1.009
297.85	0.912
298.21	0.877
298.57	0.810
298.93	0.849
299.29	0.505
299.65	0.466
300.01	0.310
300.37	0.163
300.73	0.270
301.09	0.314
301.45	0.442
301.81	0.616
302.17	0.653
302.53	0.561
302.89	0.367
303.25	0.549
303.61	0.559
303.97	0.572
304.33	0.671
304.69	0.597
305.05	0.615
305.41	0.568
305.77	0.482
306.13	0.455
306.49	0.622
306.85	0.816
307.21	0.946
307.57	0.974
307.93	1.116
308.29	1.183
308.65	1.210
309.01	1.180
309.37	1.119
309.73	1.101
310.09	1.272
310.45	1.403
310.81	1.332
311.17	1.231
311.53	1.297
311.89	1.304
312.25	1.249
312.61	1.137
312.96	1.172
313.32	1.266
313.68	1.154
314.04	0.969
314.40	0.951
314.76	0.910
315.12	0.929
315.48	0.851
315.84	0.734
316.20	0.697
316.56	0.627
316.92	0.528
317.27	0.426
317.63	0.581
317.99	0.531
318.35	0.513
318.71	0.601
319.07	0.695
319.43	0.803
319.79	0.952
320.15	1.036
320.50	1.144
320.86	1.253
321.22	1.308
321.58	1.307
321.94	1.270
322.30	1.104
322.66	0.992
323.01	0.871
323.37	0.864
323.73	0.746
324.09	0.594
324.45	0.655
324.81	0.617
325.17	0.739
325.52	0.709
325.88	0.685
326.24	0.789
326.60	0.825
326.96	0.874
327.31	0.698
327.67	0.676
328.03	0.790
328.39	0.708
328.75	0.683
329.11	0.641
329.46	0.694
329.82	0.799
330.18	0.755
330.54	0.676
330.90	0.636
331.25	0.666
331.61	0.775
331.97	0.772
332.33	0.831
332.68	0.857
333.04	0.893
333.40	0.792
333.76	0.661
334.11	0.640
334.47	0.740
334.83	0.683
335.19	0.600
335.54	0.520
335.90	0.482
336.26	0.442
336.62	0.358
336.97	0.139
337.33	0.154
337.69	0.261
338.05	0.325
338.40	0.367
338.76	0.424
339.12	0.633
339.48	0.655
339.83	0.718
340.19	0.750
340.55	0.885
340.90	1.004
341.26	1.018
341.62	0.981
341.97	0.887
342.33	0.856
342.69	0.914
343.04	0.835
343.40	0.783
343.76	0.668
344.12	0.704
344.47	0.687
344.83	0.770
345.19	0.827
345.54	0.866
345.90	0.950
346.26	0.992
346.61	1.005
346.97	1.012
347.32	1.046
347.68	1.080
348.04	1.039
348.39	0.968
348.75	0.881
349.11	0.787
349.46	0.754
349.82	0.705
350.18	0.645
350.53	0.609
350.89	0.551
351.24	0.579
351.60	0.577
351.96	0.632
352.31	0.656
352.67	0.656
353.02	0.707
353.38	0.736
353.74	0.748
354.09	0.732
354.45	0.797
354.80	0.881
355.16	0.871
355.52	0.946
355.87	0.818
356.23	0.855
356.58	0.931
356.94	0.991
357.29	1.037
357.65	1.044
358.00	1.074
358.36	1.017
358.72	0.988
359.07	1.002
359.43	1.032
359.78	1.131
360.14	1.147
360.49	1.103
360.85	1.070
361.20	1.017
361.56	1.012
361.91	1.038
362.27	1.046
362.62	1.093
362.98	1.135
363.33	1.092
363.69	1.094
364.04	1.091
364.40	1.074
364.75	1.087
365.11	1.128
365.46	1.122
365.82	1.130
366.17	1.123
366.53	1.108
366.88	1.146
367.24	1.179
367.59	1.175
367.95	1.172
368.30	1.204
368.66	1.224
369.01	1.231
369.37	1.279
369.72	1.322
370.08	1.374
370.43	1.426
370.78	1.386
371.14	1.356
371.49	1.367
371.85	1.355
372.20	1.356
372.56	1.323
372.91	1.342
373.26	1.355
373.62	1.308
373.97	1.356
374.33	1.320
374.68	1.336
375.03	1.374
375.39	1.360
375.74	1.365
376.10	1.362
376.45	1.376
376.80	1.397
377.16	1.390
377.51	1.420
377.87	1.388
378.22	1.372
378.57	1.351
378.93	1.395
379.28	1.460
379.63	1.515
379.99	1.592
380.34	1.635
380.70	1.620
381.05	1.667
381.40	1.690
381.76	1.701
382.11	1.737
382.46	1.810
382.82	1.792
383.17	1.743
383.52	1.736
383.88	1.691
384.23	1.702
384.58	1.740
384.94	1.719
385.29	1.721
385.64	1.741
385.99	1.770
386.35	1.760
386.70	1.769
387.05	1.785
387.41	1.769
387.76	1.757
388.11	1.763
388.47	1.718
388.82	1.742
389.17	1.741
389.52	1.740
389.88	1.769
390.23	1.786
390.58	1.797
390.93	1.804
391.29	1.827
391.64	1.846
391.99	1.874
392.34	1.929
392.70	1.912
393.05	1.885
393.40	1.888
393.75	1.857
394.11	1.852
394.46	1.799
394.81	1.794
395.16	1.744
395.52	1.750
395.87	1.731
396.22	1.748
396.57	1.731
396.92	1.729
397.28	1.710
397.63	1.667
397.98	1.639
398.33	1.660
398.68	1.667
399.04	1.696
399.39	1.704
399.74	1.687
400.09	1.624
400.44	1.640
400.80	1.641
401.15	1.633
401.50	1.669
401.85	1.687
402.20	1.656
402.55	1.656
402.90	1.639
403.26	1.623
403.61	1.602
403.96	1.612
404.31	1.593
404.66	1.615
405.01	1.585
405.36	1.570
405.72	1.556
406.07	1.590
406.42	1.590
406.77	1.588
407.12	1.586
407.47	1.597
407.82	1.589
408.17	1.582
408.53	1.555
408.88	1.546
409.23	1.529
409.58	1.489
409.93	1.479
410.28	1.464
410.63	1.453
410.98	1.433
411.33	1.432
411.68	1.446
412.03	1.470
412.38	1.468
412.73	1.540
413.09	1.573
413.44	1.611
413.79	1.625
414.14	1.667
414.49	1.701
414.84	1.732
415.19	1.746
415.54	1.772
415.89	1.777
416.24	1.811
416.59	1.815
416.94	1.828
417.29	1.864
417.64	1.871
417.99	1.880
418.34	1.892
418.69	1.902
419.04	1.904
419.39	1.905
419.74	1.919
420.09	1.927
420.44	1.927
420.79	1.924
421.14	1.907
421.49	1.922
421.84	1.915
422.19	1.917
422.54	1.917
422.89	1.913
423.24	1.912
423.59	1.896
423.94	1.872
424.29	1.863
424.64	1.858
424.99	1.849
425.34	1.813
425.68	1.800
426.03	1.777
426.38	1.757
426.73	1.764
427.08	1.753
427.43	1.764
427.78	1.783
428.13	1.767
428.48	1.779
428.83	1.763
429.18	1.774
429.53	1.773
429.87	1.759
430.22	1.767
430.57	1.767
430.92	1.761
431.27	1.758
431.62	1.748
431.97	1.749
432.32	1.729
432.67	1.738
433.01	1.732
433.36	1.725
433.71	1.740
434.06	1.722
434.41	1.706
434.76	1.720
435.11	1.730
435.45	1.753
435.80	1.771
436.15	1.786
436.50	1.803
436.85	1.827
437.20	1.828
437.54	1.839
437.89	1.853
438.24	1.882
438.59	1.889
438.94	1.869
439.29	1.843
439.63	1.857
439.98	1.850
440.33	1.844
440.68	1.851
441.03	1.879
441.37	1.890
441.72	1.897
442.07	1.885
442.42	1.880
442.76	1.910
443.11	1.921
443.46	1.931
443.81	1.946
444.16	1.948
444.50	1.942
444.85	1.923
445.20	1.918
445.55	1.910
445.89	1.907
446.24	1.896
446.59	1.859
446.94	1.854
447.28	1.816
447.63	1.793
447.98	1.785
448.32	1.770
448.67	1.764
449.02	1.736
449.37	1.713
449.71	1.714
450.06	1.708
450.41	1.729
450.75	1.714
451.10	1.721
451.45	1.690
451.79	1.675
452.14	1.654
452.49	1.645
452.84	1.647
453.18	1.638
453.53	1.623
453.88	1.633
454.22	1.636
454.57	1.661
454.92	1.661
455.26	1.697
455.61	1.735
455.95	1.777
456.30	1.795
456.65	1.827
456.99	1.856
457.34	1.879
457.69	1.889
458.03	1.893
458.38	1.910
458.73	1.909
459.07	1.907
459.42	1.879
459.76	1.848
460.11	1.828
460.46	1.777
460.80	1.749
461.15	1.730
461.49	1.703
461.84	1.692
462.19	1.651
462.53	1.639
462.88	1.642
463.22	1.647
463.57	1.659
463.91	1.660
464.26	1.691
464.61	1.699
464.95	1.681
465.30	1.687
465.64	1.681
465.99	1.688
466.33	1.702
466.68	1.699
467.02	1.699
467.37	1.691
467.71	1.687
468.06	1.685
468.41	1.678
468.75	1.691
469.10	1.681
469.44	1.666
469.79	1.658
470.13	1.625
470.48	1.604
470.82	1.599
471.17	1.595
471.51	1.582
471.86	1.565
472.20	1.565
472.55	1.561
472.89	1.560
473.23	1.562
473.58	1.571
473.92	1.585
474.27	1.586
474.61	1.576
474.96	1.574
475.30	1.601
475.65	1.598
475.99	1.597
476.34	1.597
476.68	1.597
477.02	1.604
477.37	1.595
477.71	1.631
478.06	1.664
478.40	1.740
478.75	1.814
479.09	1.897
479.43	1.998
479.78	2.096
480.12	2.189
480.47	2.278
480.81	2.361
481.15	2.441
481.50	2.517
481.84	2.601
482.19	2.672
482.53	2.735
482.87	2.775
483.22	2.776
483.56	2.752
483.90	2.695
484.25	2.635
484.59	2.576
484.94	2.517
485.28	2.456
485.62	2.387
485.97	2.312
486.31	2.246
486.65	2.195
487.00	2.168
487.34	2.157
487.68	2.168
488.03	2.171
488.37	2.173
488.71	2.176
489.06	2.170
489.40	2.168
489.74	2.152
490.09	2.137
490.43	2.106
490.77	2.074
491.11	2.040
491.46	2.005
491.80	1.977
492.14	1.933
492.49	1.896
492.83	1.851
493.17	1.789
493.51	1.754
493.86	1.718
494.20	1.698
494.54	1.691
494.88	1.695
495.23	1.705
495.57	1.705
495.91	1.738
496.25	1.754
496.60	1.770
496.94	1.772
497.28	1.771
497.62	1.770
497.97	1.767
498.31	1.770
498.65	1.767
498.99	1.762
499.33	1.783
499.68	1.768
500.02	1.773
500.36	1.765
500.70	1.784
501.04	1.778
501.39	1.774
501.73	1.787
502.07	1.805
502.41	1.814
502.75	1.839
503.09	1.849
503.44	1.877
503.78	1.874
504.12	1.888
504.46	1.923
504.80	1.957
505.14	1.999
505.49	2.020
505.83	2.039
506.17	2.076
506.51	2.098
506.85	2.119
507.19	2.137
507.53	2.165
507.87	2.191
508.22	2.190
508.56	2.209
508.90	2.209
509.24	2.220
509.58	2.225
509.92	2.222
510.26	2.223
510.60	2.232
510.94	2.240
511.28	2.234
511.63	2.245
511.97	2.265
512.31	2.273
512.65	2.292
512.99	2.319
513.33	2.369
513.67	2.405
514.01	2.466
514.35	2.507
514.69	2.562
515.03	2.611
515.37	2.668
515.71	2.709
516.05	2.750
516.39	2.774
516.73	2.808
517.07	2.819
517.41	2.835
517.75	2.826
518.09	2.833
518.43	2.822
518.77	2.817
519.11	2.785
519.45	2.749
519.79	2.746
520.13	2.742
520.47	2.743
520.81	2.757
521.15	2.793
521.49	2.822
521.83	2.865
522.17	2.899
522.51	2.967
522.85	3.042
523.19	3.146
523.53	3.231
523.87	3.358
524.21	3.457
524.55	3.546
524.89	3.624
525.23	3.706
525.57	3.766
525.91	3.840
526.25	3.887
526.58	3.944
526.92	3.987
527.26	4.017
527.60	4.017
527.94	4.014
528.28	4.006
528.62	3.991
528.96	3.974
529.30	3.964
529.64	3.941
529.97	3.917
530.31	3.879
530.65	3.850
530.99	3.836
531.33	3.828
531.67	3.830
532.01	3.832
532.35	3.834
532.68	3.831
533.02	3.822
533.36	3.816
533.70	3.813
534.04	3.810
534.38	3.803
534.71	3.790
535.05	3.779
535.39	3.768
535.73	3.761
536.07	3.766
536.41	3.776
536.74	3.794
537.08	3.810
537.42	3.852
537.76	3.902
538.10	3.947
538.43	3.988
538.77	4.039
539.11	4.078
539.45	4.118
539.79	4.146
540.12	4.170
540.46	4.182
540.80	4.196
541.14	4.182
541.47	4.154
541.81	4.125
542.15	4.100
542.49	4.070
542.82	4.029
543.16	3.996
543.50	3.961
543.84	3.923
544.17	3.885
544.51	3.847
544.85	3.821
545.18	3.821
545.52	3.811
545.86	3.788
546.20	3.763
546.53	3.740
546.87	3.703
547.21	3.680
547.54	3.647
547.88	3.632
548.22	3.606
548.55	3.597
548.89	3.581
549.23	3.570
549.56	3.565
549.90	3.586
550.24	3.604
550.57	3.612
550.91	3.613
551.25	3.634
551.58	3.640
551.92	3.641
552.26	3.641
552.59	3.636
552.93	3.635
553.27	3.624
553.60	3.596
553.94	3.581
554.27	3.556
554.61	3.542
554.95	3.536
555.28	3.543
555.62	3.556
555.95	3.581
556.29	3.589
556.63	3.598
556.96	3.607
557.30	3.614
557.63	3.592
557.97	3.611
558.31	3.610
558.64	3.608
558.98	3.616
559.31	3.644
559.65	3.629
559.98	3.622
560.32	3.634
560.65	3.649
560.99	3.686
561.33	3.719
561.66	3.764
562.00	3.796
562.33	3.819
562.67	3.844
563.00	3.864
563.34	3.906
563.67	3.936
564.01	3.959
564.34	3.982
564.68	3.983
565.01	4.018
565.35	4.029
565.68	4.046
566.02	4.078
566.35	4.093
566.69	4.091
567.02	4.127
567.36	4.155
567.69	4.179
568.03	4.232
568.36	4.264
568.69	4.278
569.03	4.297
569.36	4.332
569.70	4.352
570.03	4.385
570.37	4.415
570.70	4.430
571.04	4.450
571.37	4.457
571.70	4.456
572.04	4.469
572.37	4.492
572.71	4.505
573.04	4.500
573.37	4.514
573.71	4.530
574.04	4.551
574.38	4.558
574.71	4.589
575.04	4.610
575.38	4.631
575.71	4.650
576.05	4.673
576.38	4.697
576.71	4.727
577.05	4.761
577.38	4.772
577.71	4.790
578.05	4.812
578.38	4.808
578.71	4.835
579.05	4.847
579.38	4.861
579.71	4.891
580.05	4.923
580.38	4.969
580.71	4.986
581.05	5.019
581.38	5.042
581.71	5.093
582.05	5.155
582.38	5.229
582.71	5.281
583.04	5.351
583.38	5.395
583.71	5.463
584.04	5.512
584.38	5.573
584.71	5.643
585.04	5.740
585.37	5.783
585.71	5.833
586.04	5.873
586.37	5.965
586.70	6.032
587.04	6.111
587.37	6.180
587.70	6.238
588.03	6.295
588.37	6.356
588.70	6.392
589.03	6.447
589.36	6.495
589.69	6.496
590.03	6.507
590.36	6.516
590.69	6.518
591.02	6.524
591.35	6.549
591.69	6.578
592.02	6.597
592.35	6.643
592.68	6.702
593.01	6.727
593.35	6.790
593.68	6.829
594.01	6.868
594.34	6.890
594.67	6.909
595.00	6.929
595.34	6.944
595.67	6.941
596.00	6.928
596.33	6.888
596.66	6.888
596.99	6.862
597.32	6.819
597.65	6.796
597.99	6.786
598.32	6.754
598.65	6.727
598.98	6.689
599.31	6.689
599.64	6.709
599.97	6.722
600.30	6.727
600.63	6.770
600.96	6.805
601.30	6.824
601.63	6.849
601.96	6.877
602.29	6.908
602.62	6.928
602.95	6.936
603.28	6.942
603.61	6.924
603.94	6.916
604.27	6.902
604.60	6.858
604.93	6.859
605.26	6.853
605.59	6.826
605.92	6.817
606.25	6.810
606.58	6.814
606.91	6.762
607.24	6.766
607.57	6.772
607.90	6.747
608.23	6.742
608.56	6.711
608.89	6.683
609.22	6.683
609.55	6.644
609.88	6.594
610.21	6.570
610.54	6.558
610.87	6.520
611.20	6.451
611.53	6.422
611.86	6.418
612.19	6.382
612.52	6.356
612.85	6.341
613.18	6.336
613.51	6.334
613.84	6.288
614.17	6.271
614.49	6.300
614.82	6.278
615.15	6.285
615.48	6.329
615.81	6.338
616.14	6.342
616.47	6.307
616.80	6.274
617.13	6.282
617.46	6.282
617.78	6.273
618.11	6.232
618.44	6.232
618.77	6.203
619.10	6.139
619.43	6.136
619.76	6.084
620.09	6.104
620.41	6.106
620.74	6.105
621.07	6.121
621.40	6.151
621.73	6.165
622.06	6.199
622.38	6.218
622.71	6.278
623.04	6.291
623.37	6.368
623.70	6.394
624.02	6.424
624.35	6.460
624.68	6.495
625.01	6.518
625.34	6.562
625.66	6.616
625.99	6.648
626.32	6.632
626.65	6.657
626.98	6.648
627.30	6.650
627.63	6.669
627.96	6.635
628.29	6.609
628.61	6.574
628.94	6.548
629.27	6.488
629.60	6.438
629.92	6.432
630.25	6.416
630.58	6.377
630.91	6.361
631.23	6.300
631.56	6.274
631.89	6.218
632.21	6.234
632.54	6.195
632.87	6.187
633.19	6.196
633.52	6.183
633.85	6.153
634.18	6.133
634.50	6.090
634.83	6.094
635.16	6.074
635.48	6.089
635.81	6.040
636.14	6.010
636.46	6.017
636.79	5.980
637.11	5.933
637.44	5.888
637.77	5.893
638.09	5.874
638.42	5.846
638.75	5.855
639.07	5.851
639.40	5.845
639.73	5.869
640.05	5.824
640.38	5.863
640.70	5.883
641.03	5.892
641.36	5.872
641.68	5.891
642.01	5.901
642.33	5.889
642.66	5.912
642.98	5.925
643.31	5.933
643.64	5.969
643.96	5.962
644.29	5.980
644.61	6.034
644.94	6.085
645.26	6.103
645.59	6.160
645.91	6.186
646.24	6.165
646.56	6.210
646.89	6.250
647.22	6.248
647.54	6.258
647.87	6.261
648.19	6.221
648.52	6.202
648.84	6.213
649.17	6.177
649.49	6.219
649.82	6.255
650.14	6.252
650.47	6.213
650.79	6.231
651.11	6.239
651.44	6.241
651.76	6.237
652.09	6.307
652.41	6.335
652.74	6.388
653.06	6.389
653.39	6.425
653.71	6.457
654.04	6.474
654.36	6.500
654.68	6.490
655.01	6.517
655.33	6.617
655.66	6.571
655.98	6.602
656.30	6.571
656.63	6.582
656.95	6.547
657.28	6.558
