OOIBase32 Version 2.0.0.6 Data File
++++++++++++++++++++++++++++++++++++
Date: 01-23-2012, 23:11:06
User: Valued Ocean Optics Customer
Spectrometer Serial Number: USB2E2917
Spectrometer Channel: Master
Integration Time (msec): 5
Spectra Averaged: 10
Boxcar Smoothing: 5
Correct for Electrical Dark: Enabled
Time Normalized: Disabled
Dual-beam Reference: Disabled
Reference Channel: Master
Temperature: Not acquired
Spectrometer Type: S2000
ADC Type: USB2000
Number of Pixels in File: 2048
Graph Title: 
>>>>>Begin Spectral Data<<<<<
180.30	0.000
180.67	0.000
181.03	-59.631
181.40	128.732
181.77	-10254.893
182.14	72.182
182.51	117.545
182.88	-87.093
183.25	20.337
183.62	24.170
183.99	4.767
184.36	-27.845
184.73	82.908
185.10	57.326
185.46	64.919
185.83	237.238
186.20	25.949
186.57	-215.060
186.94	94.832
187.31	23.393
187.68	33.932
188.05	68.311
188.42	86.422
188.78	79.262
189.15	581.038
189.52	-178.926
189.89	-57.570
190.26	-25.366
190.63	-17.880
191.00	-8.932
191.37	-1.403
191.73	8.364
192.10	14.343
192.47	13.603
192.84	9.958
193.21	20.279
193.58	19.174
193.94	20.336
194.31	13.610
194.68	15.887
195.05	-4.960
195.42	-6.429
195.79	-18.817
196.15	-28.075
196.52	-54.396
196.89	-40.217
197.26	-38.450
197.63	-7.060
198.00	-1.279
198.36	-1.575
198.73	-20.831
199.10	-12.291
199.47	-16.534
199.84	-37.974
200.20	-32.566
200.57	-13.675
200.94	-9.652
201.31	-2.147
201.68	-15.557
202.04	-21.474
202.41	-18.128
202.78	-27.401
203.15	-14.491
203.51	-5.586
203.88	13.824
204.25	16.031
204.62	7.493
204.98	-9.372
205.35	-18.964
205.72	-16.627
206.09	-1.307
206.46	-27.066
206.82	-5.241
207.19	-16.252
207.56	-46.507
207.92	-40.218
208.29	-48.903
208.66	-18.995
209.03	-21.422
209.39	-8.346
209.76	-25.646
210.13	-88.570
210.50	-56.672
210.86	-48.601
211.23	-62.777
211.60	-34.994
211.96	-23.401
212.33	-20.690
212.70	-30.757
213.07	-34.106
213.43	-65.052
213.80	-54.820
214.17	-7.387
214.53	-1.464
214.90	-2.381
215.27	4.539
215.63	3.323
216.00	-4.141
216.37	-8.158
216.74	-14.386
217.10	-11.808
217.47	-1.159
217.84	5.183
218.20	-4.942
218.57	-0.491
218.94	-3.734
219.30	-13.790
219.67	-23.415
220.04	-16.169
220.40	-16.591
220.77	-16.432
221.13	-5.993
221.50	-8.343
221.87	-5.186
222.23	-9.543
222.60	-19.878
222.97	-20.072
223.33	-13.167
223.70	-9.646
224.07	-13.140
224.43	-10.255
224.80	-6.304
225.16	-7.909
225.53	-7.873
225.90	-11.805
226.26	-8.086
226.63	-4.630
226.99	-3.095
227.36	-2.508
227.73	0.051
228.09	0.067
228.46	1.564
228.82	1.901
229.19	1.834
229.56	1.993
229.92	5.477
230.29	6.144
230.65	6.284
231.02	3.683
231.38	1.525
231.75	-1.649
232.12	-3.382
232.48	-6.845
232.85	-8.901
233.21	-8.888
233.58	-10.608
233.94	-12.188
234.31	-13.200
234.68	-14.278
235.04	-11.963
235.41	-8.756
235.77	-6.366
236.14	-5.020
236.50	-3.099
236.87	-2.158
237.23	-1.689
237.60	-1.673
237.96	-0.564
238.33	-1.092
238.69	-0.837
239.06	-0.751
239.42	-1.055
239.79	-1.857
240.15	-1.863
240.52	-1.237
240.88	-0.660
241.25	-0.941
241.61	-0.149
241.98	-0.503
242.34	0.138
242.71	0.363
243.07	0.422
243.44	0.358
243.80	0.572
244.17	0.859
244.53	0.541
244.90	0.060
245.26	0.085
245.63	-0.047
245.99	0.096
246.36	-0.133
246.72	-0.254
247.09	-0.483
247.45	-0.253
247.81	0.238
248.18	0.245
248.54	0.491
248.91	0.776
249.27	1.092
249.64	1.442
250.00	1.689
250.36	1.844
250.73	2.157
251.09	2.396
251.46	2.151
251.82	1.309
252.19	0.892
252.55	0.423
252.91	0.228
253.28	-0.142
253.64	-1.268
254.01	-1.711
254.37	-1.427
254.73	-1.226
255.10	-0.825
255.46	-0.236
255.83	0.324
256.19	0.537
256.55	0.377
256.92	0.533
257.28	0.599
257.65	0.951
258.01	0.947
258.37	0.732
258.74	0.524
259.10	0.245
259.46	-0.134
259.83	-0.328
260.19	-0.383
260.55	-0.210
260.92	-0.135
261.28	-0.186
261.64	-0.044
262.01	0.184
262.37	0.486
262.73	0.705
263.10	1.077
263.46	1.352
263.82	1.241
264.19	1.204
264.55	0.704
264.91	0.656
265.28	0.449
265.64	0.201
266.00	0.055
266.37	-0.119
266.73	-0.073
267.09	-0.033
267.46	-0.057
267.82	-0.072
268.18	0.090
268.54	0.589
268.91	0.378
269.27	0.380
269.63	0.641
270.00	0.520
270.36	0.656
270.72	0.600
271.08	0.539
271.45	0.547
271.81	0.513
272.17	0.434
272.53	0.300
272.90	0.430
273.26	0.616
273.62	0.323
273.98	0.407
274.35	0.323
274.71	0.418
275.07	0.483
275.43	0.488
275.80	0.642
276.16	0.669
276.52	0.611
276.88	0.458
277.25	0.071
277.61	-0.027
277.97	-0.203
278.33	-0.173
278.69	-0.318
279.06	-0.381
279.42	-0.260
279.78	-0.218
280.14	-0.203
280.50	-0.120
280.87	0.163
281.23	0.494
281.59	0.624
281.95	0.637
282.31	0.766
282.68	0.640
283.04	0.570
283.40	0.680
283.76	0.791
284.12	0.849
284.48	0.799
284.85	0.757
285.21	0.762
285.57	0.683
285.93	0.757
286.29	0.572
286.65	0.739
287.02	1.096
287.38	0.818
287.74	0.615
288.10	0.569
288.46	0.541
288.82	0.368
289.18	0.401
289.54	0.521
289.91	0.584
290.27	0.644
290.63	0.774
290.99	0.544
291.35	0.672
291.71	0.819
292.07	0.897
292.43	0.993
292.79	1.112
293.16	1.100
293.52	1.155
293.88	1.155
294.24	1.141
294.60	1.105
294.96	1.011
295.32	1.073
295.68	1.057
296.04	1.030
296.40	0.910
296.76	0.939
297.12	0.831
297.49	0.701
297.85	0.577
298.21	0.568
298.57	0.402
298.93	0.492
299.29	0.341
299.65	0.294
300.01	0.273
300.37	0.466
300.73	0.490
301.09	0.495
301.45	0.604
301.81	0.667
302.17	0.664
302.53	0.580
302.89	0.485
303.25	0.653
303.61	0.562
303.97	0.336
304.33	0.290
304.69	0.333
305.05	0.316
305.41	0.213
305.77	0.330
306.13	0.379
306.49	0.428
306.85	0.538
307.21	0.483
307.57	0.661
307.93	0.743
308.29	0.814
308.65	0.772
309.01	0.763
309.37	0.741
309.73	0.699
310.09	0.798
310.45	0.872
310.81	0.813
311.17	0.735
311.53	0.540
311.89	0.613
312.25	0.546
312.61	0.609
312.96	0.755
313.32	0.902
313.68	0.811
314.04	0.682
314.40	0.655
314.76	0.543
315.12	0.537
315.48	0.691
315.84	0.619
316.20	0.552
316.56	0.366
316.92	0.261
317.27	0.108
317.63	0.163
317.99	0.234
318.35	0.251
318.71	0.377
319.07	0.567
319.43	0.551
319.79	0.716
320.15	0.728
320.50	0.834
320.86	0.832
321.22	0.857
321.58	0.826
321.94	0.670
322.30	0.589
322.66	0.541
323.01	0.325
323.37	0.238
323.73	0.135
324.09	0.133
324.45	0.079
324.81	0.083
325.17	0.147
325.52	0.146
325.88	0.253
326.24	0.374
326.60	0.418
326.96	0.632
327.31	0.652
327.67	0.614
328.03	0.647
328.39	0.635
328.75	0.685
329.11	0.686
329.46	0.786
329.82	0.844
330.18	0.767
330.54	0.815
330.90	0.653
331.25	0.653
331.61	0.690
331.97	0.662
332.33	0.768
332.68	0.789
333.04	0.767
333.40	0.687
333.76	0.576
334.11	0.570
334.47	0.418
334.83	0.415
335.19	0.413
335.54	0.372
335.90	0.311
336.26	0.258
336.62	0.147
336.97	0.067
337.33	-0.074
337.69	-0.171
338.05	-0.174
338.40	-0.124
338.76	-0.131
339.12	-0.055
339.48	-0.049
339.83	0.011
340.19	0.025
340.55	0.084
340.90	0.008
341.26	0.108
341.62	0.162
341.97	0.159
342.33	0.261
342.69	0.291
343.04	0.293
343.40	0.255
343.76	0.207
344.12	0.221
344.47	0.263
344.83	0.403
345.19	0.394
345.54	0.513
345.90	0.497
346.26	0.463
346.61	0.487
346.97	0.493
347.32	0.601
347.68	0.665
348.04	0.558
348.39	0.431
348.75	0.448
349.11	0.457
349.46	0.270
349.82	0.312
350.18	0.290
350.53	0.295
350.89	0.247
351.24	0.143
351.60	0.136
351.96	0.262
352.31	0.353
352.67	0.405
353.02	0.416
353.38	0.538
353.74	0.570
354.09	0.532
354.45	0.560
354.80	0.597
355.16	0.648
355.52	0.700
355.87	0.632
356.23	0.650
356.58	0.587
356.94	0.601
357.29	0.579
357.65	0.581
358.00	0.611
358.36	0.590
358.72	0.532
359.07	0.518
359.43	0.505
359.78	0.565
360.14	0.582
360.49	0.573
360.85	0.574
361.20	0.585
361.56	0.556
361.91	0.568
362.27	0.591
362.62	0.637
362.98	0.664
363.33	0.651
363.69	0.600
364.04	0.566
364.40	0.572
364.75	0.557
365.11	0.548
365.46	0.517
365.82	0.521
366.17	0.486
366.53	0.473
366.88	0.468
367.24	0.444
367.59	0.467
367.95	0.464
368.30	0.458
368.66	0.485
369.01	0.486
369.37	0.554
369.72	0.608
370.08	0.698
370.43	0.739
370.78	0.743
371.14	0.726
371.49	0.742
371.85	0.743
372.20	0.765
372.56	0.760
372.91	0.763
373.26	0.748
373.62	0.654
373.97	0.619
374.33	0.600
374.68	0.619
375.03	0.699
375.39	0.691
375.74	0.725
376.10	0.730
376.45	0.763
376.80	0.797
377.16	0.767
377.51	0.824
377.87	0.796
378.22	0.749
378.57	0.758
378.93	0.756
379.28	0.766
379.63	0.721
379.99	0.774
380.34	0.755
380.70	0.761
381.05	0.831
381.40	0.851
381.76	0.927
382.11	0.989
382.46	1.004
382.82	1.036
383.17	1.051
383.52	1.100
383.88	1.059
384.23	1.077
384.58	1.059
384.94	1.001
385.29	1.007
385.64	0.977
385.99	0.982
386.35	0.957
386.70	0.953
387.05	0.920
387.41	0.919
387.76	0.883
388.11	0.851
388.47	0.832
388.82	0.848
389.17	0.815
389.52	0.808
389.88	0.826
390.23	0.831
390.58	0.826
390.93	0.860
391.29	0.847
391.64	0.904
391.99	0.957
392.34	1.011
392.70	0.990
393.05	0.986
393.40	0.968
393.75	0.938
394.11	0.926
394.46	0.872
394.81	0.855
395.16	0.851
395.52	0.810
395.87	0.792
396.22	0.773
396.57	0.797
396.92	0.786
397.28	0.765
397.63	0.747
397.98	0.743
398.33	0.747
398.68	0.720
399.04	0.714
399.39	0.691
399.74	0.678
400.09	0.651
400.44	0.630
400.80	0.666
401.15	0.659
401.50	0.684
401.85	0.700
402.20	0.717
402.55	0.749
402.90	0.722
403.26	0.729
403.61	0.705
403.96	0.702
404.31	0.703
404.66	0.685
405.01	0.689
405.36	0.683
405.72	0.689
406.07	0.674
406.42	0.642
406.77	0.671
407.12	0.677
407.47	0.716
407.82	0.731
408.17	0.731
408.53	0.707
408.88	0.716
409.23	0.686
409.58	0.630
409.93	0.627
410.28	0.626
410.63	0.593
410.98	0.601
411.33	0.600
411.68	0.610
412.03	0.644
412.38	0.644
412.73	0.665
413.09	0.703
413.44	0.750
413.79	0.778
414.14	0.829
414.49	0.896
414.84	0.921
415.19	0.928
415.54	0.974
415.89	0.977
416.24	1.026
416.59	1.044
416.94	1.059
417.29	1.080
417.64	1.079
417.99	1.090
418.34	1.090
418.69	1.114
419.04	1.121
419.39	1.107
419.74	1.124
420.09	1.131
420.44	1.134
420.79	1.133
421.14	1.141
421.49	1.172
421.84	1.165
422.19	1.189
422.54	1.175
422.89	1.181
423.24	1.190
423.59	1.177
423.94	1.161
424.29	1.149
424.64	1.156
424.99	1.134
425.34	1.085
425.68	1.074
426.03	1.028
426.38	1.020
426.73	0.995
427.08	0.965
427.43	0.967
427.78	0.977
428.13	0.971
428.48	0.961
428.83	0.961
429.18	0.991
429.53	0.995
429.87	0.996
430.22	0.973
430.57	0.983
430.92	0.979
431.27	0.978
431.62	0.966
431.97	0.982
432.32	0.980
432.67	0.976
433.01	0.948
433.36	0.940
433.71	0.921
434.06	0.913
434.41	0.895
434.76	0.906
435.11	0.893
435.45	0.898
435.80	0.884
436.15	0.891
436.50	0.930
436.85	0.956
437.20	0.955
437.54	0.956
437.89	0.986
438.24	0.997
438.59	0.992
438.94	0.990
439.29	0.966
439.63	0.970
439.98	0.957
440.33	0.921
440.68	0.920
441.03	0.929
441.37	0.938
441.72	0.936
442.07	0.941
442.42	0.946
442.76	0.978
443.11	1.009
443.46	1.024
443.81	1.039
444.16	1.069
444.50	1.065
444.85	1.058
445.20	1.059
445.55	1.057
445.89	1.057
446.24	1.053
446.59	1.024
446.94	1.013
447.28	0.993
447.63	0.976
447.98	0.936
448.32	0.918
448.67	0.908
449.02	0.894
449.37	0.865
449.71	0.865
450.06	0.853
450.41	0.854
450.75	0.844
451.10	0.845
451.45	0.825
451.79	0.811
452.14	0.805
452.49	0.807
452.84	0.796
453.18	0.800
453.53	0.756
453.88	0.748
454.22	0.742
454.57	0.759
454.92	0.764
455.26	0.794
455.61	0.828
455.95	0.859
456.30	0.864
456.65	0.895
456.99	0.916
457.34	0.949
457.69	0.969
458.03	0.974
458.38	0.973
458.73	0.980
459.07	0.968
459.42	0.945
459.76	0.911
460.11	0.900
460.46	0.871
460.80	0.848
461.15	0.827
461.49	0.795
461.84	0.797
462.19	0.774
462.53	0.742
462.88	0.744
463.22	0.737
463.57	0.742
463.91	0.740
464.26	0.754
464.61	0.759
464.95	0.743
465.30	0.748
465.64	0.740
465.99	0.752
466.33	0.763
466.68	0.752
467.02	0.759
467.37	0.755
467.71	0.742
468.06	0.719
468.41	0.700
468.75	0.717
469.10	0.708
469.44	0.678
469.79	0.660
470.13	0.616
470.48	0.611
470.82	0.605
471.17	0.609
471.51	0.590
471.86	0.583
472.20	0.564
472.55	0.547
472.89	0.547
473.23	0.548
473.58	0.528
473.92	0.537
474.27	0.524
474.61	0.508
474.96	0.502
475.30	0.508
475.65	0.492
475.99	0.499
476.34	0.500
476.68	0.497
477.02	0.510
477.37	0.522
477.71	0.556
478.06	0.597
478.40	0.667
478.75	0.725
479.09	0.802
479.43	0.901
479.78	0.983
480.12	1.054
480.47	1.126
480.81	1.189
481.15	1.252
481.50	1.311
481.84	1.369
482.19	1.411
482.53	1.459
482.87	1.493
483.22	1.488
483.56	1.473
483.90	1.441
484.25	1.401
484.59	1.367
484.94	1.326
485.28	1.278
485.62	1.230
485.97	1.182
486.31	1.135
486.65	1.090
487.00	1.070
487.34	1.053
487.68	1.049
488.03	1.041
488.37	1.027
488.71	1.018
489.06	1.009
489.40	1.002
489.74	0.987
490.09	0.973
490.43	0.955
490.77	0.923
491.11	0.890
491.46	0.861
491.80	0.837
492.14	0.797
492.49	0.775
492.83	0.731
493.17	0.680
493.51	0.636
493.86	0.590
494.20	0.563
494.54	0.552
494.88	0.561
495.23	0.569
495.57	0.573
495.91	0.597
496.25	0.601
496.60	0.603
496.94	0.606
497.28	0.614
497.62	0.627
497.97	0.620
498.31	0.621
498.65	0.609
498.99	0.600
499.33	0.611
499.68	0.611
500.02	0.608
500.36	0.619
500.70	0.618
501.04	0.615
501.39	0.611
501.73	0.620
502.07	0.653
502.41	0.676
502.75	0.710
503.09	0.720
503.44	0.747
503.78	0.761
504.12	0.779
504.46	0.819
504.80	0.867
505.14	0.909
505.49	0.951
505.83	0.964
506.17	1.008
506.51	1.028
506.85	1.062
507.19	1.085
507.53	1.126
507.87	1.166
508.22	1.194
508.56	1.222
508.90	1.239
509.24	1.274
509.58	1.300
509.92	1.317
510.26	1.349
510.60	1.386
510.94	1.418
511.28	1.441
511.63	1.489
511.97	1.528
512.31	1.567
512.65	1.631
512.99	1.687
513.33	1.788
513.67	1.892
514.01	1.999
514.35	2.094
514.69	2.205
515.03	2.328
515.37	2.437
515.71	2.549
516.05	2.643
516.39	2.732
516.73	2.820
517.07	2.876
517.41	2.925
517.75	2.974
518.09	3.033
518.43	3.082
518.77	3.117
519.11	3.157
519.45	3.202
519.79	3.268
520.13	3.328
520.47	3.412
520.81	3.506
521.15	3.622
521.49	3.734
521.83	3.849
522.17	3.952
522.51	4.103
522.85	4.247
523.19	4.415
523.53	4.598
523.87	4.788
524.21	4.958
524.55	5.136
524.89	5.282
525.23	5.424
525.57	5.542
525.91	5.669
526.25	5.755
526.58	5.852
526.92	5.927
527.26	5.982
527.60	6.019
527.94	6.056
528.28	6.082
528.62	6.105
528.96	6.124
529.30	6.146
529.64	6.156
529.97	6.178
530.31	6.188
530.65	6.200
530.99	6.230
531.33	6.270
531.67	6.296
532.01	6.327
532.35	6.350
532.68	6.364
533.02	6.376
533.36	6.391
533.70	6.403
534.04	6.404
534.38	6.423
534.71	6.420
535.05	6.416
535.39	6.430
535.73	6.420
536.07	6.446
536.41	6.477
536.74	6.514
537.08	6.549
537.42	6.607
537.76	6.665
538.10	6.713
538.43	6.783
538.77	6.843
539.11	6.887
539.45	6.931
539.79	6.956
540.12	6.979
540.46	6.989
540.80	7.000
541.14	6.986
541.47	6.956
541.81	6.937
542.15	6.909
542.49	6.876
542.82	6.844
543.16	6.812
543.50	6.790
543.84	6.754
544.17	6.729
544.51	6.711
544.85	6.682
545.18	6.686
545.52	6.677
545.86	6.658
546.20	6.651
546.53	6.637
546.87	6.614
547.21	6.593
547.54	6.576
547.88	6.577
548.22	6.556
548.55	6.552
548.89	6.554
549.23	6.545
549.56	6.552
549.90	6.550
550.24	6.548
550.57	6.555
550.91	6.531
551.25	6.540
551.58	6.525
551.92	6.523
552.26	6.499
552.59	6.472
552.93	6.454
553.27	6.428
553.60	6.413
553.94	6.386
554.27	6.356
554.61	6.333
554.95	6.294
555.28	6.256
555.62	6.217
555.95	6.215
556.29	6.183
556.63	6.148
556.96	6.098
557.30	6.040
557.63	5.997
557.97	5.951
558.31	5.903
558.64	5.866
558.98	5.832
559.31	5.800
559.65	5.725
559.98	5.677
560.32	5.637
560.65	5.585
560.99	5.556
561.33	5.518
561.66	5.489
562.00	5.481
562.33	5.431
562.67	5.401
563.00	5.360
563.34	5.336
563.67	5.298
564.01	5.260
564.34	5.223
564.68	5.170
565.01	5.129
565.35	5.055
565.68	4.982
566.02	4.938
566.35	4.862
566.69	4.788
567.02	4.748
567.36	4.680
567.69	4.617
568.03	4.577
568.36	4.516
568.69	4.446
569.03	4.425
569.36	4.373
569.70	4.314
570.03	4.273
570.37	4.228
570.70	4.163
571.04	4.122
571.37	4.051
571.70	3.969
572.04	3.919
572.37	3.859
572.71	3.783
573.04	3.739
573.37	3.690
573.71	3.626
574.04	3.579
574.38	3.529
574.71	3.486
575.04	3.448
575.38	3.398
575.71	3.343
576.05	3.305
576.38	3.271
576.71	3.204
577.05	3.148
577.38	3.092
577.71	3.017
578.05	2.954
578.38	2.897
578.71	2.848
579.05	2.806
579.38	2.748
579.71	2.701
580.05	2.637
580.38	2.603
580.71	2.549
581.05	2.520
581.38	2.499
581.71	2.472
582.05	2.452
582.38	2.443
582.71	2.417
583.04	2.410
583.38	2.352
583.71	2.337
584.04	2.310
584.38	2.291
584.71	2.307
585.04	2.318
585.37	2.312
585.71	2.287
586.04	2.245
586.37	2.256
586.70	2.266
587.04	2.300
587.37	2.331
587.70	2.347
588.03	2.358
588.37	2.338
588.70	2.297
589.03	2.294
589.36	2.278
589.69	2.262
590.03	2.239
590.36	2.190
590.69	2.164
591.02	2.103
591.35	2.077
591.69	2.051
592.02	2.045
592.35	2.042
592.68	2.044
593.01	2.032
593.35	2.037
593.68	2.042
594.01	2.048
594.34	2.031
594.67	2.049
595.00	2.020
595.34	1.998
595.67	1.962
596.00	1.931
596.33	1.871
596.66	1.837
596.99	1.801
597.32	1.745
597.65	1.701
597.99	1.657
598.32	1.593
598.65	1.552
598.98	1.532
599.31	1.519
599.64	1.531
599.97	1.528
600.30	1.545
600.63	1.562
600.96	1.570
601.30	1.563
601.63	1.598
601.96	1.606
602.29	1.619
602.62	1.606
602.95	1.598
603.28	1.576
603.61	1.550
603.94	1.497
604.27	1.471
604.60	1.426
604.93	1.417
605.26	1.353
605.59	1.320
605.92	1.303
606.25	1.281
606.58	1.250
606.91	1.198
607.24	1.184
607.57	1.172
607.90	1.121
608.23	1.085
608.56	1.039
608.89	1.014
609.22	0.966
609.55	0.888
609.88	0.839
610.21	0.790
610.54	0.754
610.87	0.699
611.20	0.632
611.53	0.582
611.86	0.562
612.19	0.492
612.52	0.434
612.85	0.402
613.18	0.381
613.51	0.327
613.84	0.266
614.17	0.245
614.49	0.243
614.82	0.220
615.15	0.237
615.48	0.212
615.81	0.193
616.14	0.187
616.47	0.140
616.80	0.098
617.13	0.073
617.46	0.047
617.78	0.022
618.11	-0.038
618.44	-0.057
618.77	-0.130
619.10	-0.171
619.43	-0.176
619.76	-0.213
620.09	-0.178
620.41	-0.179
620.74	-0.178
621.07	-0.145
621.40	-0.136
621.73	-0.110
622.06	-0.061
622.38	-0.027
622.71	0.012
623.04	0.042
623.37	0.074
623.70	0.072
624.02	0.126
624.35	0.192
624.68	0.195
625.01	0.204
625.34	0.231
625.66	0.219
625.99	0.250
626.32	0.253
626.65	0.280
626.98	0.273
627.30	0.281
627.63	0.231
627.96	0.161
628.29	0.126
628.61	0.092
628.94	0.057
629.27	0.023
629.60	-0.051
629.92	-0.066
630.25	-0.133
630.58	-0.175
630.91	-0.226
631.23	-0.251
631.56	-0.268
631.89	-0.287
632.21	-0.297
632.54	-0.350
632.87	-0.386
633.19	-0.403
633.52	-0.455
633.85	-0.486
634.18	-0.512
634.50	-0.539
634.83	-0.576
635.16	-0.630
635.48	-0.670
635.81	-0.729
636.14	-0.773
636.46	-0.812
636.79	-0.863
637.11	-0.898
637.44	-0.959
637.77	-1.015
638.09	-1.081
638.42	-1.106
638.75	-1.143
639.07	-1.164
639.40	-1.194
639.73	-1.223
640.05	-1.249
640.38	-1.238
640.70	-1.295
641.03	-1.296
641.36	-1.305
641.68	-1.295
642.01	-1.323
642.33	-1.303
642.66	-1.319
642.98	-1.340
643.31	-1.319
643.64	-1.314
643.96	-1.326
644.29	-1.284
644.61	-1.251
644.94	-1.205
645.26	-1.163
645.59	-1.117
645.91	-1.078
646.24	-1.063
646.56	-1.019
646.89	-1.005
647.22	-0.997
647.54	-0.956
647.87	-0.945
648.19	-0.972
648.52	-0.977
648.84	-1.013
649.17	-1.055
649.49	-1.087
649.82	-1.101
650.14	-1.109
650.47	-1.124
650.79	-1.105
651.11	-1.138
651.44	-1.144
651.76	-1.140
652.09	-1.112
652.41	-1.090
652.74	-1.029
653.06	-1.002
653.39	-0.944
653.71	-0.901
654.04	-0.879
654.36	-0.852
654.68	-0.827
655.01	-0.766
