OOIBase32 Version 2.0.0.6 Data File
++++++++++++++++++++++++++++++++++++
Date: 01-23-2012, 23:12:42
User: Valued Ocean Optics Customer
Spectrometer Serial Number: USB2E2917
Spectrometer Channel: Master
Integration Time (msec): 5
Spectra Averaged: 10
Boxcar Smoothing: 5
Correct for Electrical Dark: Enabled
Time Normalized: Disabled
Dual-beam Reference: Disabled
Reference Channel: Master
Temperature: Not acquired
Spectrometer Type: S2000
ADC Type: USB2000
Number of Pixels in File: 2048
Graph Title: 
>>>>>Begin Spectral Data<<<<<
180.30	0.000
180.67	0.000
181.03	1.830
181.40	449.942
181.77	-1874.006
182.14	113.484
182.51	-322.567
182.88	-65.730
183.25	-13.395
183.62	102.276
183.99	425.901
184.36	5.031
184.73	73.587
185.10	40.579
185.46	-375.189
185.83	-237.227
186.20	429.881
186.57	90.656
186.94	61.007
187.31	1.856
187.68	-43.876
188.05	-0.032
188.42	-26.890
188.78	-61.861
189.15	74.706
189.52	-66.372
189.89	-52.397
190.26	-26.225
190.63	-26.831
191.00	-18.800
191.37	-4.038
191.73	16.088
192.10	12.224
192.47	7.678
192.84	5.137
193.21	18.235
193.58	23.931
193.94	26.801
194.31	29.236
194.68	43.759
195.05	42.581
195.42	43.665
195.79	34.521
196.15	61.506
196.52	66.781
196.89	66.179
197.26	40.448
197.63	44.179
198.00	66.412
198.36	59.853
198.73	47.598
199.10	31.942
199.47	35.445
199.84	39.763
200.20	18.354
200.57	9.785
200.94	16.137
201.31	35.864
201.68	16.854
202.04	0.012
202.41	-15.085
202.78	-24.424
203.15	-27.878
203.51	-46.579
203.88	-62.351
204.25	-67.568
204.62	-76.223
204.98	-89.292
205.35	-105.614
205.72	-117.797
206.09	-98.223
206.46	-158.452
206.82	-121.754
207.19	-104.976
207.56	-179.161
207.92	-125.680
208.29	-147.753
208.66	-108.089
209.03	-99.378
209.39	-65.719
209.76	-49.399
210.13	-111.747
210.50	-59.751
210.86	-46.180
211.23	-48.112
211.60	-11.534
211.96	-13.668
212.33	6.283
212.70	3.064
213.07	6.232
213.43	-16.261
213.80	-32.419
214.17	-6.015
214.53	-10.995
214.90	-9.832
215.27	-11.069
215.63	-18.464
216.00	-22.951
216.37	-36.395
216.74	-49.526
217.10	-39.537
217.47	-42.591
217.84	-32.160
218.20	-30.352
218.57	-29.472
218.94	-28.613
219.30	-31.582
219.67	-27.469
220.04	-19.660
220.40	-16.812
220.77	-12.382
221.13	-13.884
221.50	-3.896
221.87	-6.479
222.23	-8.878
222.60	-12.135
222.97	-18.355
223.33	-15.166
223.70	-12.704
224.07	-15.652
224.43	-16.023
224.80	-11.178
225.16	-9.052
225.53	-9.094
225.90	-9.642
226.26	-6.086
226.63	-3.309
226.99	-0.572
227.36	-0.827
227.73	0.420
228.09	0.553
228.46	2.873
228.82	3.089
229.19	1.299
229.56	0.728
229.92	1.612
230.29	-0.025
230.65	-1.957
231.02	-3.080
231.38	-4.493
231.75	-7.465
232.12	-7.492
232.48	-9.028
232.85	-9.477
233.21	-9.001
233.58	-10.164
233.94	-9.942
234.31	-9.993
234.68	-8.025
235.04	-7.475
235.41	-6.243
235.77	-5.304
236.14	-6.078
236.50	-5.465
236.87	-4.865
237.23	-3.647
237.60	-4.291
237.96	-3.907
238.33	-4.296
238.69	-4.684
239.06	-4.428
239.42	-3.966
239.79	-4.110
240.15	-3.630
240.52	-3.023
240.88	-2.838
241.25	-3.048
241.61	-1.929
241.98	-1.842
242.34	-1.356
242.71	-0.903
243.07	-0.775
243.44	-0.529
243.80	-0.299
244.17	-0.076
244.53	-0.498
244.90	-0.429
245.26	-0.060
245.63	-0.063
245.99	-0.289
246.36	-0.495
246.72	-0.379
247.09	-0.650
247.45	-0.957
247.81	-0.921
248.18	-1.241
248.54	-0.977
248.91	-1.417
249.27	-1.727
249.64	-1.817
250.00	-1.297
250.36	-1.124
250.73	-1.554
251.09	-1.179
251.46	-1.025
251.82	-0.879
252.19	-0.281
252.55	-0.280
252.91	0.355
253.28	0.368
253.64	-0.166
254.01	-0.695
254.37	-0.547
254.73	0.023
255.10	0.667
255.46	1.085
255.83	0.838
256.19	0.791
256.55	0.559
256.92	0.513
257.28	0.503
257.65	0.879
258.01	1.143
258.37	1.049
258.74	0.870
259.10	0.538
259.46	0.333
259.83	0.157
260.19	-0.025
260.55	0.103
260.92	-0.028
261.28	-0.052
261.64	-0.252
262.01	-0.496
262.37	-0.616
262.73	-0.490
263.10	-0.247
263.46	-0.016
263.82	0.238
264.19	0.287
264.55	-0.130
264.91	-0.369
265.28	-0.502
265.64	-0.399
266.00	-0.469
266.37	-0.455
266.73	-0.761
267.09	-0.965
267.46	-1.388
267.82	-1.449
268.18	-1.267
268.54	-1.007
268.91	-0.968
269.27	-0.882
269.63	-0.768
270.00	-0.572
270.36	-0.427
270.72	-0.128
271.08	-0.118
271.45	-0.057
271.81	0.077
272.17	-0.023
272.53	-0.038
272.90	0.164
273.26	0.270
273.62	-0.158
273.98	-0.648
274.35	-0.718
274.71	-0.971
275.07	-1.091
275.43	-1.244
275.80	-1.384
276.16	-1.438
276.52	-1.437
276.88	-1.513
277.25	-1.728
277.61	-1.650
277.97	-1.359
278.33	-1.257
278.69	-1.372
279.06	-1.210
279.42	-1.033
279.78	-1.003
280.14	-0.896
280.50	-0.757
280.87	-0.668
281.23	-0.499
281.59	-0.265
281.95	-0.241
282.31	-0.260
282.68	-0.301
283.04	-0.406
283.40	-0.227
283.76	-0.118
284.12	-0.069
284.48	-0.116
284.85	-0.002
285.21	-0.016
285.57	-0.167
285.93	-0.074
286.29	-0.218
286.65	0.042
287.02	0.358
287.38	0.322
287.74	0.152
288.10	0.061
288.46	0.006
288.82	-0.309
289.18	-0.396
289.54	-0.253
289.91	-0.314
290.27	-0.213
290.63	-0.078
290.99	-0.160
291.35	-0.174
291.71	0.095
292.07	0.016
292.43	0.074
292.79	0.369
293.16	0.406
293.52	0.486
293.88	0.575
294.24	0.573
294.60	0.362
294.96	0.258
295.32	0.224
295.68	0.174
296.04	0.204
296.40	0.193
296.76	0.123
297.12	0.042
297.49	-0.163
297.85	-0.340
298.21	-0.327
298.57	-0.437
298.93	-0.424
299.29	-0.528
299.65	-0.585
300.01	-0.398
300.37	-0.315
300.73	-0.244
301.09	-0.217
301.45	-0.114
301.81	0.047
302.17	0.099
302.53	0.078
302.89	0.029
303.25	0.224
303.61	0.314
303.97	0.254
304.33	0.328
304.69	0.275
305.05	0.307
305.41	0.269
305.77	0.219
306.13	0.166
306.49	0.195
306.85	0.267
307.21	0.237
307.57	0.200
307.93	0.167
308.29	0.122
308.65	0.129
309.01	0.099
309.37	0.154
309.73	0.188
310.09	0.452
310.45	0.574
310.81	0.497
311.17	0.476
311.53	0.363
311.89	0.413
312.25	0.418
312.61	0.266
312.96	0.342
313.32	0.386
313.68	0.337
314.04	0.026
314.40	-0.112
314.76	-0.130
315.12	-0.131
315.48	0.000
315.84	0.005
316.20	0.000
316.56	0.050
316.92	0.032
317.27	-0.085
317.63	-0.013
317.99	-0.091
318.35	0.006
318.71	0.093
319.07	0.106
319.43	0.035
319.79	0.074
320.15	0.023
320.50	0.163
320.86	0.135
321.22	0.177
321.58	0.097
321.94	0.138
322.30	0.135
322.66	0.101
323.01	-0.029
323.37	-0.027
323.73	-0.072
324.09	-0.156
324.45	-0.109
324.81	-0.074
325.17	-0.039
325.52	-0.042
325.88	0.041
326.24	0.085
326.60	0.046
326.96	0.133
327.31	0.148
327.67	0.038
328.03	0.106
328.39	-0.021
328.75	0.014
329.11	0.032
329.46	0.147
329.82	0.180
330.18	0.088
330.54	0.068
330.90	0.019
331.25	0.113
331.61	0.224
331.97	0.167
332.33	0.164
332.68	0.120
333.04	0.053
333.40	-0.137
333.76	-0.229
334.11	-0.173
334.47	-0.140
334.83	-0.147
335.19	-0.208
335.54	-0.224
335.90	-0.258
336.26	-0.232
336.62	-0.311
336.97	-0.351
337.33	-0.341
337.69	-0.297
338.05	-0.388
338.40	-0.475
338.76	-0.477
339.12	-0.486
339.48	-0.593
339.83	-0.524
340.19	-0.533
340.55	-0.378
340.90	-0.375
341.26	-0.324
341.62	-0.372
341.97	-0.330
342.33	-0.230
342.69	-0.187
343.04	-0.162
343.40	-0.136
343.76	-0.181
344.12	-0.131
344.47	-0.143
344.83	-0.071
345.19	-0.044
345.54	-0.019
345.90	0.022
346.26	0.008
346.61	0.022
346.97	-0.023
347.32	0.018
347.68	0.087
348.04	0.025
348.39	-0.090
348.75	-0.057
349.11	-0.097
349.46	-0.153
349.82	-0.159
350.18	-0.214
350.53	-0.183
350.89	-0.179
351.24	-0.242
351.60	-0.285
351.96	-0.264
352.31	-0.182
352.67	-0.231
353.02	-0.227
353.38	-0.179
353.74	-0.198
354.09	-0.148
354.45	-0.127
354.80	-0.125
355.16	-0.043
355.52	0.026
355.87	-0.023
356.23	-0.056
356.58	-0.047
356.94	0.015
357.29	0.023
357.65	0.079
358.00	0.106
358.36	0.031
358.72	0.024
359.07	0.022
359.43	-0.025
359.78	0.019
360.14	0.026
360.49	0.013
360.85	-0.006
361.20	-0.023
361.56	-0.060
361.91	-0.044
362.27	-0.001
362.62	0.031
362.98	0.007
363.33	-0.002
363.69	-0.018
364.04	0.010
364.40	0.007
364.75	-0.012
365.11	-0.016
365.46	-0.085
365.82	-0.122
366.17	-0.138
366.53	-0.136
366.88	-0.142
367.24	-0.106
367.59	-0.104
367.95	-0.092
368.30	-0.086
368.66	-0.114
369.01	-0.118
369.37	-0.045
369.72	-0.028
370.08	0.015
370.43	-0.018
370.78	-0.014
371.14	-0.075
371.49	-0.030
371.85	-0.034
372.20	-0.041
372.56	-0.024
372.91	0.017
373.26	-0.007
373.62	-0.031
373.97	-0.022
374.33	-0.022
374.68	0.004
375.03	0.069
375.39	0.004
375.74	-0.048
376.10	-0.064
376.45	-0.045
376.80	-0.062
377.16	-0.098
377.51	-0.067
377.87	-0.110
378.22	-0.129
378.57	-0.150
378.93	-0.159
379.28	-0.098
379.63	-0.074
379.99	0.003
380.34	0.013
380.70	0.024
381.05	0.120
381.40	0.136
381.76	0.172
382.11	0.201
382.46	0.240
382.82	0.241
383.17	0.205
383.52	0.202
383.88	0.172
384.23	0.163
384.58	0.175
384.94	0.110
385.29	0.103
385.64	0.082
385.99	0.129
386.35	0.133
386.70	0.147
387.05	0.127
387.41	0.132
387.76	0.101
388.11	0.102
388.47	0.074
388.82	0.091
389.17	0.091
389.52	0.117
389.88	0.115
390.23	0.116
390.58	0.111
390.93	0.160
391.29	0.176
391.64	0.228
391.99	0.285
392.34	0.337
392.70	0.353
393.05	0.342
393.40	0.326
393.75	0.313
394.11	0.314
394.46	0.300
394.81	0.286
395.16	0.262
395.52	0.221
395.87	0.175
396.22	0.149
396.57	0.116
396.92	0.110
397.28	0.090
397.63	0.068
397.98	0.074
398.33	0.061
398.68	0.051
399.04	0.078
399.39	0.077
399.74	0.050
400.09	0.040
400.44	0.057
400.80	0.059
401.15	0.063
401.50	0.065
401.85	0.045
402.20	0.053
402.55	0.080
402.90	0.033
403.26	0.033
403.61	0.048
403.96	0.042
404.31	0.041
404.66	0.058
405.01	0.039
405.36	0.052
405.72	0.040
406.07	0.040
406.42	-0.005
406.77	0.013
407.12	-0.007
407.47	-0.013
407.82	0.000
408.17	0.001
408.53	-0.022
408.88	-0.030
409.23	-0.067
409.58	-0.072
409.93	-0.049
410.28	-0.026
410.63	-0.050
410.98	-0.038
411.33	-0.034
411.68	-0.040
412.03	0.001
412.38	-0.012
412.73	0.038
413.09	0.063
413.44	0.086
413.79	0.090
414.14	0.128
414.49	0.189
414.84	0.223
415.19	0.257
415.54	0.313
415.89	0.309
416.24	0.373
416.59	0.389
416.94	0.410
417.29	0.426
417.64	0.416
417.99	0.417
418.34	0.421
418.69	0.442
419.04	0.442
419.39	0.437
419.74	0.435
420.09	0.427
420.44	0.422
420.79	0.418
421.14	0.420
421.49	0.453
421.84	0.445
422.19	0.457
422.54	0.441
422.89	0.441
423.24	0.425
423.59	0.430
423.94	0.407
424.29	0.404
424.64	0.400
424.99	0.383
425.34	0.343
425.68	0.337
426.03	0.303
426.38	0.287
426.73	0.270
427.08	0.265
427.43	0.273
427.78	0.299
428.13	0.287
428.48	0.280
428.83	0.295
429.18	0.306
429.53	0.295
429.87	0.290
430.22	0.286
430.57	0.300
430.92	0.291
431.27	0.276
431.62	0.242
431.97	0.244
432.32	0.245
432.67	0.222
433.01	0.205
433.36	0.206
433.71	0.199
434.06	0.185
434.41	0.170
434.76	0.181
435.11	0.184
435.45	0.200
435.80	0.212
436.15	0.214
436.50	0.233
436.85	0.254
437.20	0.246
437.54	0.256
437.89	0.283
438.24	0.298
438.59	0.284
438.94	0.276
439.29	0.260
439.63	0.254
439.98	0.246
440.33	0.225
440.68	0.220
441.03	0.237
441.37	0.251
441.72	0.249
442.07	0.240
442.42	0.256
442.76	0.268
443.11	0.293
443.46	0.309
443.81	0.325
444.16	0.340
444.50	0.345
444.85	0.343
445.20	0.330
445.55	0.323
445.89	0.320
446.24	0.303
446.59	0.280
446.94	0.253
447.28	0.215
447.63	0.193
447.98	0.175
448.32	0.161
448.67	0.135
449.02	0.110
449.37	0.087
449.71	0.075
450.06	0.076
450.41	0.087
450.75	0.092
451.10	0.099
451.45	0.085
451.79	0.074
452.14	0.039
452.49	0.042
452.84	0.048
453.18	0.039
453.53	0.032
453.88	0.043
454.22	0.051
454.57	0.073
454.92	0.085
455.26	0.108
455.61	0.146
455.95	0.194
456.30	0.210
456.65	0.232
456.99	0.256
457.34	0.273
457.69	0.282
458.03	0.288
458.38	0.281
458.73	0.283
459.07	0.273
459.42	0.253
459.76	0.219
460.11	0.192
460.46	0.155
460.80	0.124
461.15	0.095
461.49	0.056
461.84	0.018
462.19	-0.002
462.53	-0.019
462.88	-0.028
463.22	-0.048
463.57	-0.040
463.91	-0.037
464.26	-0.014
464.61	-0.001
464.95	-0.009
465.30	-0.010
465.64	-0.009
465.99	-0.007
466.33	-0.008
466.68	-0.004
467.02	-0.009
467.37	-0.021
467.71	-0.028
468.06	-0.046
468.41	-0.061
468.75	-0.057
469.10	-0.057
469.44	-0.070
469.79	-0.086
470.13	-0.118
470.48	-0.134
470.82	-0.149
471.17	-0.150
471.51	-0.163
471.86	-0.174
472.20	-0.177
472.55	-0.187
472.89	-0.202
473.23	-0.221
473.58	-0.226
473.92	-0.218
474.27	-0.218
474.61	-0.226
474.96	-0.233
475.30	-0.228
475.65	-0.235
475.99	-0.241
476.34	-0.247
476.68	-0.245
477.02	-0.230
477.37	-0.230
477.71	-0.196
478.06	-0.165
478.40	-0.090
478.75	-0.015
479.09	0.072
479.43	0.155
479.78	0.230
480.12	0.291
480.47	0.359
480.81	0.420
481.15	0.478
481.50	0.519
481.84	0.564
482.19	0.597
482.53	0.627
482.87	0.642
483.22	0.644
483.56	0.634
483.90	0.621
484.25	0.592
484.59	0.567
484.94	0.539
485.28	0.510
485.62	0.476
485.97	0.440
486.31	0.408
486.65	0.377
487.00	0.360
487.34	0.350
487.68	0.343
488.03	0.325
488.37	0.316
488.71	0.300
489.06	0.286
489.40	0.286
489.74	0.272
490.09	0.259
490.43	0.239
490.77	0.203
491.11	0.163
491.46	0.123
491.80	0.104
492.14	0.061
492.49	0.037
492.83	-0.002
493.17	-0.048
493.51	-0.089
493.86	-0.128
494.20	-0.154
494.54	-0.166
494.88	-0.159
495.23	-0.144
495.57	-0.134
495.91	-0.119
496.25	-0.112
496.60	-0.105
496.94	-0.117
497.28	-0.103
497.62	-0.102
497.97	-0.108
498.31	-0.092
498.65	-0.112
498.99	-0.129
499.33	-0.121
499.68	-0.113
500.02	-0.110
500.36	-0.105
500.70	-0.094
501.04	-0.091
501.39	-0.091
501.73	-0.064
502.07	-0.045
502.41	-0.001
502.75	0.047
503.09	0.060
503.44	0.073
503.78	0.087
504.12	0.113
504.46	0.160
504.80	0.208
505.14	0.264
505.49	0.303
505.83	0.326
506.17	0.369
506.51	0.396
506.85	0.452
507.19	0.508
507.53	0.563
507.87	0.616
508.22	0.642
508.56	0.675
508.90	0.704
509.24	0.750
509.58	0.790
509.92	0.829
510.26	0.876
510.60	0.913
510.94	0.949
511.28	0.988
511.63	1.041
511.97	1.109
512.31	1.171
512.65	1.230
512.99	1.307
513.33	1.416
513.67	1.522
514.01	1.649
514.35	1.760
514.69	1.881
515.03	2.007
515.37	2.118
515.71	2.234
516.05	2.341
516.39	2.445
516.73	2.534
517.07	2.625
517.41	2.690
517.75	2.734
518.09	2.797
518.43	2.861
518.77	2.905
519.11	2.977
519.45	3.017
519.79	3.085
520.13	3.165
520.47	3.261
520.81	3.346
521.15	3.471
521.49	3.611
521.83	3.733
522.17	3.852
522.51	4.007
522.85	4.162
523.19	4.364
523.53	4.557
523.87	4.763
524.21	4.945
524.55	5.124
524.89	5.270
525.23	5.418
525.57	5.553
525.91	5.675
526.25	5.768
526.58	5.863
526.92	5.934
527.26	5.993
527.60	6.028
527.94	6.059
528.28	6.083
528.62	6.110
528.96	6.129
529.30	6.147
529.64	6.165
529.97	6.187
530.31	6.192
530.65	6.208
530.99	6.239
531.33	6.276
531.67	6.315
532.01	6.349
532.35	6.366
532.68	6.386
533.02	6.391
533.36	6.392
533.70	6.403
534.04	6.409
534.38	6.421
534.71	6.416
535.05	6.418
535.39	6.427
535.73	6.433
536.07	6.468
536.41	6.490
536.74	6.539
537.08	6.598
537.42	6.651
537.76	6.711
538.10	6.774
538.43	6.826
538.77	6.880
539.11	6.927
539.45	6.964
539.79	7.001
540.12	7.027
540.46	7.028
540.80	7.027
541.14	7.021
541.47	7.004
541.81	6.976
542.15	6.959
542.49	6.932
542.82	6.889
543.16	6.844
543.50	6.814
543.84	6.780
544.17	6.755
544.51	6.750
544.85	6.717
545.18	6.713
545.52	6.704
545.86	6.681
546.20	6.676
546.53	6.680
546.87	6.687
547.21	6.643
547.54	6.631
547.88	6.625
548.22	6.592
548.55	6.601
548.89	6.602
549.23	6.594
549.56	6.617
549.90	6.626
550.24	6.616
550.57	6.619
550.91	6.641
551.25	6.651
551.58	6.645
551.92	6.635
552.26	6.604
552.59	6.574
552.93	6.564
553.27	6.533
553.60	6.502
553.94	6.458
554.27	6.424
554.61	6.387
554.95	6.344
555.28	6.314
555.62	6.289
555.95	6.289
556.29	6.266
556.63	6.232
556.96	6.183
557.30	6.122
557.63	6.112
557.97	6.082
558.31	6.032
558.64	5.988
558.98	5.970
559.31	5.947
559.65	5.902
559.98	5.845
560.32	5.786
560.65	5.756
560.99	5.721
561.33	5.660
561.66	5.610
562.00	5.584
562.33	5.550
562.67	5.490
563.00	5.448
563.34	5.389
563.67	5.358
564.01	5.316
564.34	5.259
564.68	5.209
565.01	5.175
565.35	5.120
565.68	5.065
566.02	4.978
566.35	4.927
566.69	4.838
567.02	4.795
567.36	4.708
567.69	4.660
568.03	4.613
568.36	4.557
568.69	4.492
569.03	4.436
569.36	4.371
569.70	4.331
570.03	4.281
570.37	4.242
570.70	4.193
571.04	4.154
571.37	4.086
571.70	4.007
572.04	3.942
572.37	3.881
572.71	3.811
573.04	3.760
573.37	3.710
573.71	3.640
574.04	3.573
574.38	3.488
574.71	3.434
575.04	3.380
575.38	3.326
575.71	3.265
576.05	3.226
576.38	3.190
576.71	3.102
577.05	3.045
577.38	2.976
577.71	2.910
578.05	2.855
578.38	2.777
578.71	2.721
579.05	2.659
579.38	2.593
579.71	2.513
580.05	2.456
580.38	2.421
580.71	2.358
581.05	2.326
581.38	2.285
581.71	2.271
582.05	2.268
582.38	2.251
582.71	2.237
583.04	2.240
583.38	2.214
583.71	2.186
584.04	2.177
584.38	2.172
584.71	2.152
585.04	2.166
585.37	2.141
585.71	2.117
586.04	2.094
586.37	2.108
586.70	2.093
587.04	2.101
587.37	2.097
587.70	2.089
588.03	2.077
588.37	2.093
588.70	2.076
589.03	2.070
589.36	2.064
589.69	2.036
590.03	1.991
590.36	1.957
590.69	1.916
591.02	1.874
591.35	1.845
591.69	1.832
592.02	1.798
592.35	1.765
592.68	1.770
593.01	1.738
593.35	1.739
593.68	1.730
594.01	1.739
594.34	1.732
594.67	1.757
595.00	1.754
595.34	1.706
595.67	1.683
596.00	1.675
596.33	1.609
596.66	1.561
596.99	1.523
597.32	1.472
597.65	1.427
597.99	1.376
598.32	1.307
598.65	1.240
598.98	1.220
599.31	1.173
599.64	1.148
599.97	1.141
600.30	1.186
600.63	1.189
600.96	1.219
601.30	1.223
601.63	1.259
601.96	1.263
602.29	1.285
602.62	1.285
602.95	1.298
603.28	1.274
603.61	1.244
603.94	1.197
604.27	1.180
604.60	1.130
604.93	1.114
605.26	1.067
605.59	1.024
605.92	0.999
606.25	0.972
606.58	0.942
606.91	0.899
607.24	0.897
607.57	0.871
607.90	0.831
608.23	0.775
608.56	0.703
608.89	0.636
609.22	0.584
609.55	0.505
609.88	0.447
610.21	0.367
610.54	0.313
610.87	0.243
611.20	0.164
611.53	0.101
611.86	0.065
612.19	0.023
612.52	-0.016
612.85	-0.017
613.18	-0.048
613.51	-0.104
613.84	-0.131
614.17	-0.166
614.49	-0.189
614.82	-0.227
615.15	-0.264
615.48	-0.272
615.81	-0.307
616.14	-0.310
616.47	-0.365
616.80	-0.415
617.13	-0.448
617.46	-0.467
617.78	-0.492
618.11	-0.522
618.44	-0.544
618.77	-0.576
619.10	-0.615
619.43	-0.627
619.76	-0.663
620.09	-0.638
620.41	-0.628
620.74	-0.584
621.07	-0.589
621.40	-0.579
621.73	-0.548
622.06	-0.518
622.38	-0.496
622.71	-0.459
623.04	-0.440
623.37	-0.399
623.70	-0.423
624.02	-0.377
624.35	-0.362
624.68	-0.341
625.01	-0.303
625.34	-0.292
625.66	-0.262
625.99	-0.247
626.32	-0.266
626.65	-0.250
626.98	-0.262
627.30	-0.262
627.63	-0.310
627.96	-0.373
628.29	-0.415
628.61	-0.482
628.94	-0.538
629.27	-0.596
629.60	-0.667
629.92	-0.671
630.25	-0.746
630.58	-0.786
630.91	-0.814
631.23	-0.831
631.56	-0.818
631.89	-0.848
632.21	-0.849
632.54	-0.867
632.87	-0.909
633.19	-0.918
633.52	-0.967
633.85	-0.971
634.18	-1.011
634.50	-1.059
634.83	-1.104
635.16	-1.168
635.48	-1.214
635.81	-1.268
636.14	-1.333
636.46	-1.373
636.79	-1.413
637.11	-1.452
637.44	-1.538
637.77	-1.588
638.09	-1.654
638.42	-1.718
638.75	-1.764
639.07	-1.800
639.40	-1.833
639.73	-1.837
640.05	-1.866
640.38	-1.855
640.70	-1.907
641.03	-1.903
641.36	-1.897
641.68	-1.869
642.01	-1.874
642.33	-1.861
642.66	-1.856
642.98	-1.848
643.31	-1.879
643.64	-1.875
643.96	-1.893
644.29	-1.875
644.61	-1.859
644.94	-1.873
645.26	-1.855
645.59	-1.817
645.91	-1.812
646.24	-1.772
646.56	-1.774
646.89	-1.746
647.22	-1.719
647.54	-1.707
