OOIBase32 Version 2.0.0.6 Data File
++++++++++++++++++++++++++++++++++++
Date: 01-23-2012, 23:16:52
User: Valued Ocean Optics Customer
Spectrometer Serial Number: USB2E2917
Spectrometer Channel: Master
Integration Time (msec): 5
Spectra Averaged: 10
Boxcar Smoothing: 5
Correct for Electrical Dark: Enabled
Time Normalized: Disabled
Dual-beam Reference: Disabled
Reference Channel: Master
Temperature: Not acquired
Spectrometer Type: S2000
ADC Type: USB2000
Number of Pixels in File: 2048
Graph Title: 
>>>>>Begin Spectral Data<<<<<
180.30	0.000
180.67	0.000
181.03	64.349
181.40	864.467
181.77	5580.199
182.14	122.409
182.51	285.816
182.88	211.981
183.25	40.448
183.62	127.132
183.99	335.319
184.36	158.619
184.73	318.728
185.10	27.567
185.46	-345.656
185.83	141.156
186.20	-1618.254
186.57	-40.123
186.94	18.848
187.31	58.501
187.68	86.206
188.05	236.014
188.42	286.129
188.78	529.909
189.15	1611.852
189.52	-455.898
189.89	-157.858
190.26	-141.340
190.63	-70.197
191.00	-56.379
191.37	-23.257
191.73	-4.784
192.10	-4.260
192.47	6.685
192.84	13.096
193.21	21.685
193.58	21.541
193.94	5.546
194.31	13.563
194.68	10.146
195.05	5.341
195.42	4.652
195.79	-9.550
196.15	-17.346
196.52	-50.947
196.89	-92.523
197.26	-99.142
197.63	-91.553
198.00	-72.392
198.36	-76.686
198.73	-115.565
199.10	-109.872
199.47	-95.250
199.84	-100.386
200.20	-90.530
200.57	-70.997
200.94	-54.576
201.31	-47.435
201.68	-47.267
202.04	-44.621
202.41	-44.766
202.78	-54.921
203.15	-56.439
203.51	-56.873
203.88	-52.307
204.25	-43.375
204.62	-75.085
204.98	-74.714
205.35	-73.256
205.72	-66.907
206.09	-33.286
206.46	-90.673
206.82	-60.392
207.19	-45.075
207.56	-103.619
207.92	-99.140
208.29	-113.373
208.66	-31.587
209.03	-32.615
209.39	-31.024
209.76	-43.908
210.13	-108.871
210.50	-65.662
210.86	-54.155
211.23	-74.234
211.60	-32.801
211.96	-28.827
212.33	-18.754
212.70	-55.628
213.07	-72.774
213.43	-110.635
213.80	-103.505
214.17	-65.448
214.53	-55.586
214.90	-45.625
215.27	-32.665
215.63	-35.595
216.00	-26.278
216.37	-23.150
216.74	-27.083
217.10	-18.232
217.47	-11.582
217.84	1.641
218.20	6.104
218.57	19.321
218.94	17.519
219.30	10.383
219.67	4.681
220.04	-2.783
220.40	-7.447
220.77	-3.444
221.13	2.586
221.50	2.325
221.87	1.828
222.23	-4.303
222.60	-18.183
222.97	-22.905
223.33	-20.003
223.70	-15.726
224.07	-14.926
224.43	-14.739
224.80	-13.550
225.16	-15.800
225.53	-15.766
225.90	-17.961
226.26	-14.924
226.63	-12.220
226.99	-10.503
227.36	-8.565
227.73	-7.528
228.09	-6.947
228.46	-4.302
228.82	-2.734
229.19	-1.941
229.56	-0.859
229.92	1.956
230.29	2.630
230.65	3.033
231.02	3.677
231.38	1.277
231.75	0.177
232.12	-1.613
232.48	-4.681
232.85	-5.453
233.21	-4.512
233.58	-5.025
233.94	-5.031
234.31	-6.326
234.68	-5.806
235.04	-7.091
235.41	-5.700
235.77	-4.101
236.14	-1.635
236.50	0.305
236.87	0.397
237.23	0.773
237.60	-0.193
237.96	-0.484
238.33	-0.259
238.69	-0.724
239.06	-0.836
239.42	-0.767
239.79	-1.206
240.15	-1.162
240.52	-1.272
240.88	-1.108
241.25	-1.352
241.61	-0.274
241.98	-0.479
242.34	-0.418
242.71	0.086
243.07	0.109
243.44	-0.206
243.80	-0.372
244.17	-0.620
244.53	-0.713
244.90	-0.806
245.26	-0.952
245.63	-1.166
245.99	-1.143
246.36	-1.160
246.72	-1.122
247.09	-1.294
247.45	-0.910
247.81	-0.374
248.18	-0.217
248.54	-0.075
248.91	-0.110
249.27	0.308
249.64	0.410
250.00	0.439
250.36	0.134
250.73	-0.324
251.09	0.117
251.46	-0.243
251.82	-0.584
252.19	-0.804
252.55	-0.889
252.91	-0.681
253.28	-0.838
253.64	-1.297
254.01	-1.209
254.37	-0.791
254.73	-0.366
255.10	-0.279
255.46	0.306
255.83	0.478
256.19	0.746
256.55	0.616
256.92	0.732
257.28	0.810
257.65	1.132
258.01	1.165
258.37	1.191
258.74	0.930
259.10	0.708
259.46	0.424
259.83	0.408
260.19	0.128
260.55	0.024
260.92	-0.306
261.28	-0.607
261.64	-0.802
262.01	-0.889
262.37	-0.845
262.73	-0.568
263.10	0.028
263.46	0.034
263.82	-0.279
264.19	-0.047
264.55	-0.271
264.91	-0.137
265.28	-0.155
265.64	-0.176
266.00	-0.120
266.37	-0.212
266.73	-0.410
267.09	-0.661
267.46	-0.424
267.82	-0.254
268.18	-0.280
268.54	0.130
268.91	0.225
269.27	0.324
269.63	0.470
270.00	0.347
270.36	0.232
270.72	0.454
271.08	0.296
271.45	0.012
271.81	-0.083
272.17	-0.114
272.53	-0.236
272.90	-0.293
273.26	-0.229
273.62	-0.582
273.98	-0.735
274.35	-0.629
274.71	-0.703
275.07	-0.551
275.43	-0.507
275.80	-0.439
276.16	-0.391
276.52	-0.269
276.88	-0.221
277.25	-0.444
277.61	-0.531
277.97	-0.592
278.33	-0.563
278.69	-0.649
279.06	-0.689
279.42	-0.382
279.78	-0.264
280.14	-0.099
280.50	-0.078
280.87	-0.010
281.23	0.210
281.59	0.442
281.95	0.503
282.31	0.511
282.68	0.449
283.04	0.354
283.40	0.343
283.76	0.373
284.12	0.398
284.48	0.431
284.85	0.418
285.21	0.346
285.57	0.295
285.93	0.438
286.29	0.206
286.65	0.376
287.02	0.786
287.38	0.712
287.74	0.537
288.10	0.452
288.46	0.435
288.82	0.372
289.18	0.409
289.54	0.353
289.91	0.318
290.27	0.528
290.63	0.587
290.99	0.340
291.35	0.491
291.71	0.767
292.07	0.691
292.43	0.591
292.79	0.641
293.16	0.619
293.52	0.889
293.88	0.917
294.24	0.889
294.60	0.747
294.96	0.742
295.32	0.643
295.68	0.498
296.04	0.532
296.40	0.533
296.76	0.544
297.12	0.465
297.49	0.223
297.85	0.066
298.21	0.046
298.57	-0.118
298.93	-0.086
299.29	-0.169
299.65	-0.120
300.01	-0.147
300.37	-0.048
300.73	-0.059
301.09	0.001
301.45	0.109
301.81	0.284
302.17	0.389
302.53	0.459
302.89	0.408
303.25	0.495
303.61	0.361
303.97	0.255
304.33	0.190
304.69	0.260
305.05	0.383
305.41	0.441
305.77	0.447
306.13	0.375
306.49	0.399
306.85	0.521
307.21	0.523
307.57	0.645
307.93	0.749
308.29	0.908
308.65	0.879
309.01	0.724
309.37	0.620
309.73	0.559
310.09	0.741
310.45	0.846
310.81	0.772
311.17	0.755
311.53	0.793
311.89	0.808
312.25	0.637
312.61	0.544
312.96	0.599
313.32	0.715
313.68	0.772
314.04	0.627
314.40	0.661
314.76	0.598
315.12	0.633
315.48	0.519
315.84	0.574
316.20	0.549
316.56	0.507
316.92	0.438
317.27	0.345
317.63	0.415
317.99	0.361
318.35	0.329
318.71	0.357
319.07	0.288
319.43	0.333
319.79	0.381
320.15	0.436
320.50	0.572
320.86	0.653
321.22	0.618
321.58	0.517
321.94	0.500
322.30	0.464
322.66	0.538
323.01	0.447
323.37	0.437
323.73	0.297
324.09	0.243
324.45	0.250
324.81	0.229
325.17	0.375
325.52	0.349
325.88	0.289
326.24	0.318
326.60	0.211
326.96	0.400
327.31	0.320
327.67	0.290
328.03	0.288
328.39	0.166
328.75	0.245
329.11	0.246
329.46	0.291
329.82	0.360
330.18	0.272
330.54	0.246
330.90	0.123
331.25	0.232
331.61	0.290
331.97	0.315
332.33	0.431
332.68	0.408
333.04	0.363
333.40	0.342
333.76	0.357
334.11	0.428
334.47	0.437
334.83	0.412
335.19	0.286
335.54	0.290
335.90	0.255
336.26	0.214
336.62	0.147
336.97	0.097
337.33	0.077
337.69	0.032
338.05	-0.047
338.40	0.000
338.76	0.075
339.12	0.174
339.48	0.197
339.83	0.267
340.19	0.267
340.55	0.400
340.90	0.364
341.26	0.358
341.62	0.374
341.97	0.376
342.33	0.420
342.69	0.467
343.04	0.482
343.40	0.353
343.76	0.246
344.12	0.270
344.47	0.212
344.83	0.248
345.19	0.285
345.54	0.258
345.90	0.252
346.26	0.225
346.61	0.130
346.97	0.085
347.32	0.190
347.68	0.258
348.04	0.203
348.39	0.083
348.75	0.104
349.11	0.071
349.46	0.051
349.82	0.081
350.18	0.069
350.53	0.110
350.89	0.148
351.24	0.087
351.60	0.042
351.96	0.114
352.31	0.197
352.67	0.204
353.02	0.218
353.38	0.244
353.74	0.254
354.09	0.228
354.45	0.235
354.80	0.257
355.16	0.336
355.52	0.369
355.87	0.297
356.23	0.290
356.58	0.288
356.94	0.306
357.29	0.358
357.65	0.388
358.00	0.393
358.36	0.383
358.72	0.344
359.07	0.326
359.43	0.318
359.78	0.373
360.14	0.409
360.49	0.400
360.85	0.423
361.20	0.376
361.56	0.316
361.91	0.369
362.27	0.397
362.62	0.389
362.98	0.418
363.33	0.447
363.69	0.426
364.04	0.426
364.40	0.444
364.75	0.443
365.11	0.538
365.46	0.566
365.82	0.597
366.17	0.609
366.53	0.672
366.88	0.687
367.24	0.735
367.59	0.772
367.95	0.798
368.30	0.791
368.66	0.769
369.01	0.737
369.37	0.780
369.72	0.757
370.08	0.806
370.43	0.829
370.78	0.800
371.14	0.749
371.49	0.762
371.85	0.717
372.20	0.743
372.56	0.764
372.91	0.763
373.26	0.791
373.62	0.774
373.97	0.722
374.33	0.682
374.68	0.724
375.03	0.755
375.39	0.726
375.74	0.733
376.10	0.731
376.45	0.767
376.80	0.782
377.16	0.747
377.51	0.771
377.87	0.818
378.22	0.818
378.57	0.769
378.93	0.822
379.28	0.882
379.63	0.891
379.99	0.923
380.34	0.917
380.70	0.930
381.05	0.966
381.40	0.963
381.76	0.973
382.11	1.002
382.46	1.091
382.82	1.064
383.17	1.029
383.52	1.058
383.88	1.034
384.23	1.027
384.58	1.000
384.94	0.941
385.29	0.980
385.64	0.969
385.99	0.979
386.35	0.973
386.70	0.975
387.05	0.956
387.41	0.963
387.76	0.974
388.11	0.990
388.47	0.979
388.82	1.021
389.17	1.000
389.52	1.008
389.88	1.020
390.23	0.989
390.58	1.015
390.93	1.039
391.29	1.019
391.64	1.051
391.99	1.073
392.34	1.145
392.70	1.144
393.05	1.123
393.40	1.131
393.75	1.101
394.11	1.111
394.46	1.076
394.81	1.090
395.16	1.070
395.52	1.042
395.87	0.994
396.22	0.965
396.57	0.940
396.92	0.911
397.28	0.852
397.63	0.839
397.98	0.804
398.33	0.797
398.68	0.777
399.04	0.789
399.39	0.769
399.74	0.778
400.09	0.737
400.44	0.738
400.80	0.774
401.15	0.782
401.50	0.793
401.85	0.829
402.20	0.817
402.55	0.837
402.90	0.843
403.26	0.841
403.61	0.813
403.96	0.823
404.31	0.819
404.66	0.806
405.01	0.808
405.36	0.810
405.72	0.788
406.07	0.771
406.42	0.743
406.77	0.742
407.12	0.751
407.47	0.792
407.82	0.798
408.17	0.798
408.53	0.799
408.88	0.774
409.23	0.743
409.58	0.696
409.93	0.747
410.28	0.753
410.63	0.719
410.98	0.702
411.33	0.686
411.68	0.694
412.03	0.716
412.38	0.709
412.73	0.752
413.09	0.791
413.44	0.835
413.79	0.835
414.14	0.867
414.49	0.919
414.84	0.945
415.19	0.975
415.54	0.990
415.89	1.004
416.24	1.042
416.59	1.061
416.94	1.055
417.29	1.097
417.64	1.097
417.99	1.109
418.34	1.117
418.69	1.125
419.04	1.128
419.39	1.144
419.74	1.143
420.09	1.159
420.44	1.157
420.79	1.164
421.14	1.151
421.49	1.170
421.84	1.153
422.19	1.159
422.54	1.146
422.89	1.138
423.24	1.134
423.59	1.140
423.94	1.106
424.29	1.110
424.64	1.111
424.99	1.089
425.34	1.021
425.68	1.005
426.03	0.961
426.38	0.950
426.73	0.938
427.08	0.912
427.43	0.896
427.78	0.917
428.13	0.908
428.48	0.910
428.83	0.922
429.18	0.971
429.53	0.982
429.87	0.976
430.22	0.987
430.57	1.006
430.92	0.996
431.27	0.999
431.62	0.976
431.97	0.973
432.32	0.966
432.67	0.947
433.01	0.924
433.36	0.910
433.71	0.917
434.06	0.908
434.41	0.884
434.76	0.892
435.11	0.888
435.45	0.899
435.80	0.906
436.15	0.925
436.50	0.951
436.85	0.975
437.20	0.981
437.54	0.988
437.89	0.992
438.24	1.000
438.59	0.993
438.94	0.991
439.29	0.978
439.63	0.969
439.98	0.951
440.33	0.927
440.68	0.933
441.03	0.949
441.37	0.947
441.72	0.961
442.07	0.963
442.42	0.983
442.76	1.006
443.11	1.029
443.46	1.039
443.81	1.055
444.16	1.079
444.50	1.083
444.85	1.082
445.20	1.089
445.55	1.082
445.89	1.080
446.24	1.066
446.59	1.040
446.94	1.023
447.28	1.010
447.63	0.997
447.98	0.984
448.32	0.955
448.67	0.930
449.02	0.899
449.37	0.876
449.71	0.873
450.06	0.868
450.41	0.867
450.75	0.860
451.10	0.867
451.45	0.853
451.79	0.823
452.14	0.816
452.49	0.817
452.84	0.819
453.18	0.819
453.53	0.808
453.88	0.797
454.22	0.817
454.57	0.839
454.92	0.842
455.26	0.854
455.61	0.900
455.95	0.935
456.30	0.955
456.65	0.994
456.99	1.026
457.34	1.055
457.69	1.083
458.03	1.086
458.38	1.093
458.73	1.093
459.07	1.096
459.42	1.071
459.76	1.041
460.11	1.016
460.46	0.989
460.80	0.961
461.15	0.915
461.49	0.872
461.84	0.848
462.19	0.815
462.53	0.793
462.88	0.782
463.22	0.768
463.57	0.769
463.91	0.772
464.26	0.776
464.61	0.764
464.95	0.756
465.30	0.769
465.64	0.784
465.99	0.808
466.33	0.818
466.68	0.810
467.02	0.823
467.37	0.820
467.71	0.801
468.06	0.798
468.41	0.796
468.75	0.790
469.10	0.779
469.44	0.740
469.79	0.700
470.13	0.649
470.48	0.634
470.82	0.623
471.17	0.618
471.51	0.608
471.86	0.588
472.20	0.579
472.55	0.595
472.89	0.595
473.23	0.593
473.58	0.598
473.92	0.614
474.27	0.607
474.61	0.591
474.96	0.589
475.30	0.599
475.65	0.586
475.99	0.577
476.34	0.576
476.68	0.557
477.02	0.573
477.37	0.578
477.71	0.619
478.06	0.660
478.40	0.730
478.75	0.803
479.09	0.888
479.43	0.992
479.78	1.088
480.12	1.163
480.47	1.251
480.81	1.324
481.15	1.387
481.50	1.451
481.84	1.515
482.19	1.568
482.53	1.611
482.87	1.642
483.22	1.636
483.56	1.615
483.90	1.583
484.25	1.542
484.59	1.495
484.94	1.453
485.28	1.406
485.62	1.349
485.97	1.291
486.31	1.245
486.65	1.204
487.00	1.191
487.34	1.180
487.68	1.174
488.03	1.168
488.37	1.171
488.71	1.163
489.06	1.145
489.40	1.148
489.74	1.145
490.09	1.137
490.43	1.116
490.77	1.085
491.11	1.054
491.46	1.029
491.80	1.003
492.14	0.959
492.49	0.943
492.83	0.913
493.17	0.872
493.51	0.848
493.86	0.809
494.20	0.787
494.54	0.775
494.88	0.789
495.23	0.797
495.57	0.813
495.91	0.836
496.25	0.836
496.60	0.850
496.94	0.842
497.28	0.846
497.62	0.856
497.97	0.863
498.31	0.873
498.65	0.871
498.99	0.879
499.33	0.891
499.68	0.899
500.02	0.916
500.36	0.928
500.70	0.963
501.04	0.967
501.39	0.981
501.73	1.000
502.07	1.046
502.41	1.075
502.75	1.119
503.09	1.149
503.44	1.187
503.78	1.219
504.12	1.249
504.46	1.293
504.80	1.346
505.14	1.409
505.49	1.475
505.83	1.522
506.17	1.578
506.51	1.621
506.85	1.675
507.19	1.735
507.53	1.789
507.87	1.851
508.22	1.893
508.56	1.941
508.90	1.983
509.24	2.024
509.58	2.065
509.92	2.110
510.26	2.151
510.60	2.198
510.94	2.230
511.28	2.281
511.63	2.340
511.97	2.411
512.31	2.483
512.65	2.557
512.99	2.644
513.33	2.754
513.67	2.867
514.01	2.994
514.35	3.111
514.69	3.232
515.03	3.351
515.37	3.464
515.71	3.572
516.05	3.671
516.39	3.760
516.73	3.852
517.07	3.907
517.41	3.976
517.75	4.029
518.09	4.094
518.43	4.146
518.77	4.182
519.11	4.235
519.45	4.282
519.79	4.356
520.13	4.434
520.47	4.517
520.81	4.632
521.15	4.740
521.49	4.866
521.83	4.994
522.17	5.133
522.51	5.300
522.85	5.454
523.19	5.634
523.53	5.816
523.87	6.014
524.21	6.195
524.55	6.362
524.89	6.523
525.23	6.674
525.57	6.797
525.91	6.913
526.25	7.012
526.58	7.118
526.92	7.202
527.26	7.263
527.60	7.301
527.94	7.337
528.28	7.358
528.62	7.380
528.96	7.397
529.30	7.417
529.64	7.432
529.97	7.449
530.31	7.448
530.65	7.462
530.99	7.489
531.33	7.530
531.67	7.566
532.01	7.605
532.35	7.635
532.68	7.650
533.02	7.662
533.36	7.677
533.70	7.691
534.04	7.696
534.38	7.700
534.71	7.709
535.05	7.703
535.39	7.714
535.73	7.730
536.07	7.746
536.41	7.789
536.74	7.827
537.08	7.873
537.42	7.930
537.76	7.993
538.10	8.052
538.43	8.103
538.77	8.159
539.11	8.208
539.45	8.249
539.79	8.294
540.12	8.322
540.46	8.341
540.80	8.351
541.14	8.344
541.47	8.329
541.81	8.324
542.15	8.303
542.49	8.286
542.82	8.256
543.16	8.231
543.50	8.205
543.84	8.161
544.17	8.131
544.51	8.113
544.85	8.087
545.18	8.087
545.52	8.065
545.86	8.054
546.20	8.053
546.53	8.027
546.87	8.012
547.21	7.974
547.54	7.971
547.88	7.952
548.22	7.932
548.55	7.932
548.89	7.907
549.23	7.911
549.56	7.908
549.90	7.906
550.24	7.926
550.57	7.912
550.91	7.915
551.25	7.919
551.58	7.920
551.92	7.928
552.26	7.933
552.59	7.928
552.93	7.907
553.27	7.900
553.60	7.868
553.94	7.826
554.27	7.827
554.61	7.808
554.95	7.768
555.28	7.742
555.62	7.694
555.95	7.661
556.29	7.636
556.63	7.602
556.96	7.574
557.30	7.571
557.63	7.550
557.97	7.487
558.31	7.438
558.64	7.398
558.98	7.372
559.31	7.380
559.65	7.346
559.98	7.323
560.32	7.289
560.65	7.238
560.99	7.172
561.33	7.137
561.66	7.114
562.00	7.094
562.33	7.079
562.67	7.049
563.00	7.001
563.34	6.985
563.67	6.946
564.01	6.908
564.34	6.878
564.68	6.841
565.01	6.804
565.35	6.757
565.68	6.688
566.02	6.615
566.35	6.551
566.69	6.470
567.02	6.398
567.36	6.323
567.69	6.268
568.03	6.218
568.36	6.151
568.69	6.083
569.03	6.036
569.36	5.990
569.70	5.934
570.03	5.911
570.37	5.875
570.70	5.813
571.04	5.771
571.37	5.716
571.70	5.641
572.04	5.597
572.37	5.551
572.71	5.482
573.04	5.438
573.37	5.409
573.71	5.332
574.04	5.295
574.38	5.236
574.71	5.196
575.04	5.130
575.38	5.076
575.71	5.003
576.05	4.953
576.38	4.917
576.71	4.833
577.05	4.747
577.38	4.693
577.71	4.589
578.05	4.530
578.38	4.460
578.71	4.414
579.05	4.369
579.38	4.323
579.71	4.261
580.05	4.195
580.38	4.173
580.71	4.148
581.05	4.129
581.38	4.099
581.71	4.069
582.05	4.035
582.38	4.009
582.71	3.981
583.04	3.976
583.38	3.950
583.71	3.944
584.04	3.944
584.38	3.914
584.71	3.875
585.04	3.891
585.37	3.880
585.71	3.884
586.04	3.866
586.37	3.885
586.70	3.875
587.04	3.875
587.37	3.865
587.70	3.838
588.03	3.831
588.37	3.820
588.70	3.804
589.03	3.787
589.36	3.764
589.69	3.751
590.03	3.710
590.36	3.684
590.69	3.653
591.02	3.616
591.35	3.584
591.69	3.586
592.02	3.585
592.35	3.559
592.68	3.555
593.01	3.530
593.35	3.535
593.68	3.544
594.01	3.543
594.34	3.519
594.67	3.528
595.00	3.521
595.34	3.490
595.67	3.428
596.00	3.404
596.33	3.373
596.66	3.346
596.99	3.294
597.32	3.224
597.65	3.147
597.99	3.116
598.32	3.051
598.65	2.992
598.98	2.956
599.31	2.945
599.64	2.952
599.97	2.922
600.30	2.921
600.63	2.918
600.96	2.939
601.30	2.975
601.63	3.010
601.96	3.015
602.29	3.033
602.62	3.007
602.95	2.994
603.28	2.949
603.61	2.914
603.94	2.866
604.27	2.836
604.60	2.781
604.93	2.749
605.26	2.680
605.59	2.638
605.92	2.597
606.25	2.588
606.58	2.575
606.91	2.556
607.24	2.549
607.57	2.533
607.90	2.513
608.23	2.481
608.56	2.415
608.89	2.361
609.22	2.320
609.55	2.265
609.88	2.189
610.21	2.111
610.54	2.028
610.87	1.964
611.20	1.910
611.53	1.825
611.86	1.788
612.19	1.737
612.52	1.699
612.85	1.685
613.18	1.652
613.51	1.626
613.84	1.583
614.17	1.551
614.49	1.550
614.82	1.487
615.15	1.467
615.48	1.438
615.81	1.421
616.14	1.380
616.47	1.304
616.80	1.259
617.13	1.196
617.46	1.176
617.78	1.147
618.11	1.089
618.44	1.081
618.77	1.042
619.10	1.006
619.43	0.974
619.76	0.950
620.09	0.987
620.41	0.997
620.74	1.028
621.07	1.061
621.40	1.075
621.73	1.080
622.06	1.104
622.38	1.136
622.71	1.143
623.04	1.182
623.37	1.240
623.70	1.245
624.02	1.270
624.35	1.310
624.68	1.307
625.01	1.340
625.34	1.391
625.66	1.416
625.99	1.418
626.32	1.406
626.65	1.409
626.98	1.388
627.30	1.366
627.63	1.326
627.96	1.257
628.29	1.217
628.61	1.165
628.94	1.081
629.27	1.019
629.60	0.969
629.92	0.972
630.25	0.905
630.58	0.884
630.91	0.866
631.23	0.851
631.56	0.851
631.89	0.800
632.21	0.780
632.54	0.756
632.87	0.710
633.19	0.684
633.52	0.645
633.85	0.637
634.18	0.585
634.50	0.522
634.83	0.477
635.16	0.400
635.48	0.386
635.81	0.330
636.14	0.274
636.46	0.232
636.79	0.168
637.11	0.062
637.44	-0.043
637.77	-0.120
638.09	-0.184
638.42	-0.243
638.75	-0.254
639.07	-0.312
639.40	-0.347
639.73	-0.389
640.05	-0.444
640.38	-0.447
640.70	-0.442
641.03	-0.421
641.36	-0.441
641.68	-0.428
642.01	-0.450
642.33	-0.493
642.66	-0.467
642.98	-0.506
643.31	-0.500
643.64	-0.501
643.96	-0.503
644.29	-0.504
644.61	-0.528
644.94	-0.531
645.26	-0.532
645.59	-0.499
645.91	-0.485
646.24	-0.490
646.56	-0.466
646.89	-0.454
647.22	-0.433
647.54	-0.441
647.87	-0.429
648.19	-0.444
648.52	-0.420
648.84	-0.409
649.17	-0.424
649.49	-0.412
649.82	-0.433
650.14	-0.427
650.47	-0.438
650.79	-0.459
651.11	-0.475
651.44	-0.495
651.76	-0.515
652.09	-0.482
652.41	-0.472
652.74	-0.451
653.06	-0.445
653.39	-0.431
653.71	-0.409
654.04	-0.412
654.36	-0.387
