OOIBase32 Version 2.0.0.6 Data File
++++++++++++++++++++++++++++++++++++
Date: 01-23-2012, 23:18:30
User: Valued Ocean Optics Customer
Spectrometer Serial Number: USB2E2917
Spectrometer Channel: Master
Integration Time (msec): 5
Spectra Averaged: 10
Boxcar Smoothing: 5
Correct for Electrical Dark: Enabled
Time Normalized: Disabled
Dual-beam Reference: Disabled
Reference Channel: Master
Temperature: Not acquired
Spectrometer Type: S2000
ADC Type: USB2000
Number of Pixels in File: 2048
Graph Title: 
>>>>>Begin Spectral Data<<<<<
180.30	0.000
180.67	0.000
181.03	-61.498
181.40	374.083
181.77	-8383.639
182.14	44.424
182.51	177.140
182.88	165.359
183.25	46.327
183.62	145.111
183.99	129.917
184.36	72.374
184.73	111.946
185.10	23.645
185.46	335.009
185.83	48.590
186.20	1040.373
186.57	50.538
186.94	49.349
187.31	56.148
187.68	14.720
188.05	104.422
188.42	150.269
188.78	280.695
189.15	835.550
189.52	-192.768
189.89	-86.262
190.26	-63.462
190.63	-25.002
191.00	3.511
191.37	3.701
191.73	24.376
192.10	18.447
192.47	15.585
192.84	14.171
193.21	23.055
193.58	11.916
193.94	7.199
194.31	7.043
194.68	11.092
195.05	-4.989
195.42	-8.822
195.79	-21.397
196.15	-5.657
196.52	-6.159
196.89	-9.950
197.26	-22.697
197.63	3.842
198.00	24.507
198.36	18.605
198.73	-0.315
199.10	8.844
199.47	33.469
199.84	45.795
200.20	26.268
200.57	19.080
200.94	19.644
201.31	37.176
201.68	28.030
202.04	26.243
202.41	18.583
202.78	10.892
203.15	16.106
203.51	6.709
203.88	-14.243
204.25	-31.397
204.62	-42.052
204.98	-44.119
205.35	-68.011
205.72	-66.439
206.09	-53.052
206.46	-93.304
206.82	-80.377
207.19	-79.615
207.56	-123.600
207.92	-73.463
208.29	-51.823
208.66	-12.580
209.03	-14.387
209.39	1.314
209.76	4.340
210.13	-41.243
210.50	-16.084
210.86	5.503
211.23	15.663
211.60	10.197
211.96	1.582
212.33	-3.543
212.70	-17.558
213.07	-20.893
213.43	-53.725
213.80	-71.692
214.17	-33.522
214.53	-19.269
214.90	-18.890
215.27	-19.264
215.63	-15.568
216.00	-22.691
216.37	-13.357
216.74	-12.101
217.10	-4.912
217.47	-3.156
217.84	5.164
218.20	4.545
218.57	-2.162
218.94	-5.374
219.30	-11.790
219.67	-18.819
220.04	-11.586
220.40	-21.123
220.77	-28.348
221.13	-24.681
221.50	-15.946
221.87	-17.480
222.23	-24.650
222.60	-29.411
222.97	-29.213
223.33	-24.431
223.70	-20.517
224.07	-21.472
224.43	-18.563
224.80	-14.026
225.16	-15.634
225.53	-16.135
225.90	-17.573
226.26	-12.925
226.63	-8.733
226.99	-6.165
227.36	-4.469
227.73	-0.630
228.09	-0.679
228.46	0.756
228.82	1.817
229.19	2.229
229.56	1.069
229.92	3.432
230.29	4.343
230.65	3.514
231.02	1.459
231.38	-0.930
231.75	-4.912
232.12	-4.305
232.48	-6.022
232.85	-6.029
233.21	-5.325
233.58	-4.783
233.94	-4.832
234.31	-5.296
234.68	-5.129
235.04	-3.835
235.41	-1.462
235.77	1.068
236.14	1.757
236.50	3.405
236.87	2.476
237.23	2.143
237.60	2.598
237.96	2.088
238.33	0.973
238.69	0.431
239.06	0.445
239.42	0.288
239.79	-1.242
240.15	-1.799
240.52	-1.855
240.88	-1.343
241.25	-1.614
241.61	-1.420
241.98	-1.290
242.34	-1.098
242.71	-0.511
243.07	-0.291
243.44	-0.548
243.80	-0.327
244.17	-0.303
244.53	-0.639
244.90	-0.712
245.26	-0.538
245.63	-0.636
245.99	-0.790
246.36	-0.668
246.72	-0.474
247.09	-1.009
247.45	-0.873
247.81	-0.534
248.18	-0.613
248.54	-0.234
248.91	-0.289
249.27	-0.102
249.64	0.337
250.00	0.672
250.36	0.628
250.73	0.018
251.09	0.635
251.46	0.610
251.82	0.232
252.19	0.492
252.55	0.165
252.91	0.461
253.28	0.432
253.64	-0.296
254.01	-0.142
254.37	0.215
254.73	0.884
255.10	0.816
255.46	1.113
255.83	1.063
256.19	1.031
256.55	1.010
256.92	0.968
257.28	0.857
257.65	1.048
258.01	0.998
258.37	0.913
258.74	0.543
259.10	0.593
259.46	0.343
259.83	0.297
260.19	0.303
260.55	0.222
260.92	0.021
261.28	-0.020
261.64	-0.072
262.01	-0.037
262.37	-0.294
262.73	-0.008
263.10	0.045
263.46	0.347
263.82	0.174
264.19	-0.215
264.55	-0.553
264.91	-0.655
265.28	-0.772
265.64	-0.984
266.00	-1.164
266.37	-1.103
266.73	-1.292
267.09	-1.428
267.46	-1.754
267.82	-1.644
268.18	-1.279
268.54	-0.782
268.91	-0.675
269.27	-0.541
269.63	-0.173
270.00	-0.030
270.36	0.103
270.72	0.366
271.08	0.469
271.45	0.385
271.81	0.512
272.17	0.513
272.53	0.416
272.90	0.534
273.26	0.628
273.62	0.309
273.98	0.134
274.35	0.132
274.71	-0.067
275.07	-0.097
275.43	0.242
275.80	0.200
276.16	0.075
276.52	-0.020
276.88	-0.054
277.25	-0.375
277.61	-0.392
277.97	-0.525
278.33	-0.526
278.69	-0.620
279.06	-0.606
279.42	-0.691
279.78	-0.548
280.14	-0.415
280.50	-0.433
280.87	-0.486
281.23	-0.367
281.59	-0.182
281.95	-0.117
282.31	0.014
282.68	-0.129
283.04	-0.287
283.40	-0.261
283.76	-0.300
284.12	-0.260
284.48	-0.095
284.85	-0.084
285.21	-0.045
285.57	-0.216
285.93	-0.112
286.29	-0.475
286.65	-0.371
287.02	-0.102
287.38	0.004
287.74	-0.045
288.10	-0.100
288.46	-0.282
288.82	-0.358
289.18	-0.279
289.54	-0.177
289.91	-0.194
290.27	0.106
290.63	0.400
290.99	0.250
291.35	0.121
291.71	0.250
292.07	0.241
292.43	0.355
292.79	0.369
293.16	0.278
293.52	0.349
293.88	0.429
294.24	0.403
294.60	0.373
294.96	0.351
295.32	0.362
295.68	0.307
296.04	0.331
296.40	0.360
296.76	0.431
297.12	0.378
297.49	0.248
297.85	0.103
298.21	-0.050
298.57	-0.281
298.93	-0.177
299.29	-0.320
299.65	-0.357
300.01	-0.461
300.37	-0.449
300.73	-0.397
301.09	-0.382
301.45	-0.352
301.81	-0.256
302.17	-0.143
302.53	-0.362
302.89	-0.574
303.25	-0.421
303.61	-0.426
303.97	-0.497
304.33	-0.562
304.69	-0.668
305.05	-0.523
305.41	-0.489
305.77	-0.458
306.13	-0.480
306.49	-0.283
306.85	-0.086
307.21	-0.061
307.57	0.093
307.93	0.186
308.29	0.332
308.65	0.385
309.01	0.260
309.37	0.292
309.73	0.259
310.09	0.418
310.45	0.571
310.81	0.532
311.17	0.403
311.53	0.222
311.89	0.314
312.25	0.175
312.61	0.182
312.96	0.267
313.32	0.300
313.68	0.306
314.04	0.171
314.40	0.037
314.76	-0.023
315.12	0.128
315.48	0.301
315.84	0.173
316.20	0.280
316.56	0.250
316.92	0.235
317.27	0.140
317.63	0.201
317.99	0.081
318.35	0.073
318.71	0.150
319.07	0.209
319.43	0.110
319.79	0.218
320.15	0.157
320.50	0.093
320.86	-0.013
321.22	0.020
321.58	-0.147
321.94	-0.101
322.30	-0.115
322.66	-0.115
323.01	-0.317
323.37	-0.336
323.73	-0.343
324.09	-0.380
324.45	-0.247
324.81	-0.189
325.17	-0.128
325.52	-0.093
325.88	-0.054
326.24	0.008
326.60	-0.091
326.96	0.045
327.31	0.031
327.67	-0.105
328.03	-0.092
328.39	-0.201
328.75	-0.157
329.11	-0.077
329.46	0.031
329.82	0.071
330.18	0.067
330.54	0.133
330.90	0.030
331.25	0.095
331.61	0.260
331.97	0.236
332.33	0.250
332.68	0.221
333.04	0.122
333.40	-0.027
333.76	-0.142
334.11	-0.175
334.47	-0.144
334.83	-0.159
335.19	-0.260
335.54	-0.381
335.90	-0.430
336.26	-0.360
336.62	-0.385
336.97	-0.496
337.33	-0.433
337.69	-0.340
338.05	-0.333
338.40	-0.437
338.76	-0.347
339.12	-0.225
339.48	-0.200
339.83	-0.147
340.19	-0.126
340.55	-0.024
340.90	0.012
341.26	0.027
341.62	-0.030
341.97	-0.043
342.33	-0.005
342.69	-0.006
343.04	-0.106
343.40	-0.142
343.76	-0.172
344.12	-0.217
344.47	-0.257
344.83	-0.167
345.19	-0.134
345.54	-0.123
345.90	-0.125
346.26	-0.087
346.61	-0.082
346.97	-0.056
347.32	-0.031
347.68	-0.074
348.04	-0.144
348.39	-0.201
348.75	-0.252
349.11	-0.255
349.46	-0.234
349.82	-0.172
350.18	-0.221
350.53	-0.225
350.89	-0.252
351.24	-0.284
351.60	-0.235
351.96	-0.098
352.31	-0.089
352.67	-0.051
353.02	-0.084
353.38	-0.091
353.74	-0.079
354.09	-0.089
354.45	-0.097
354.80	-0.064
355.16	0.022
355.52	0.072
355.87	-0.064
356.23	-0.033
356.58	-0.075
356.94	-0.074
357.29	-0.045
357.65	-0.102
358.00	-0.067
358.36	-0.076
358.72	-0.118
359.07	-0.139
359.43	-0.158
359.78	-0.063
360.14	-0.118
360.49	-0.120
360.85	-0.089
361.20	-0.126
361.56	-0.127
361.91	-0.109
362.27	-0.092
362.62	-0.050
362.98	-0.028
363.33	-0.082
363.69	-0.134
364.04	-0.087
364.40	-0.111
364.75	-0.157
365.11	-0.173
365.46	-0.193
365.82	-0.182
366.17	-0.199
366.53	-0.208
366.88	-0.215
367.24	-0.198
367.59	-0.193
367.95	-0.195
368.30	-0.214
368.66	-0.178
369.01	-0.180
369.37	-0.131
369.72	-0.133
370.08	-0.111
370.43	-0.111
370.78	-0.114
371.14	-0.128
371.49	-0.111
371.85	-0.071
372.20	-0.050
372.56	-0.063
372.91	-0.040
373.26	-0.078
373.62	-0.134
373.97	-0.121
374.33	-0.106
374.68	-0.118
375.03	-0.032
375.39	-0.110
375.74	-0.156
376.10	-0.093
376.45	-0.079
376.80	-0.053
377.16	-0.050
377.51	-0.003
377.87	0.027
378.22	-0.011
378.57	-0.039
378.93	-0.066
379.28	0.017
379.63	0.024
379.99	0.007
380.34	0.007
380.70	-0.000
381.05	0.023
381.40	0.003
381.76	-0.022
382.11	0.029
382.46	0.057
382.82	0.050
383.17	0.036
383.52	0.044
383.88	0.026
384.23	0.027
384.58	0.040
384.94	0.033
385.29	0.061
385.64	0.061
385.99	0.099
386.35	0.122
386.70	0.138
387.05	0.099
387.41	0.108
387.76	0.090
388.11	0.092
388.47	0.083
388.82	0.106
389.17	0.100
389.52	0.102
389.88	0.080
390.23	0.076
390.58	0.091
390.93	0.150
391.29	0.161
391.64	0.212
391.99	0.277
392.34	0.299
392.70	0.288
393.05	0.272
393.40	0.279
393.75	0.284
394.11	0.306
394.46	0.296
394.81	0.282
395.16	0.253
395.52	0.257
395.87	0.201
396.22	0.203
396.57	0.174
396.92	0.185
397.28	0.172
397.63	0.140
397.98	0.093
398.33	0.087
398.68	0.089
399.04	0.105
399.39	0.076
399.74	0.071
400.09	0.079
400.44	0.107
400.80	0.112
401.15	0.118
401.50	0.151
401.85	0.196
402.20	0.215
402.55	0.245
402.90	0.227
403.26	0.241
403.61	0.243
403.96	0.242
404.31	0.268
404.66	0.295
405.01	0.289
405.36	0.276
405.72	0.273
406.07	0.269
406.42	0.226
406.77	0.241
407.12	0.251
407.47	0.261
407.82	0.254
408.17	0.241
408.53	0.225
408.88	0.216
409.23	0.209
409.58	0.149
409.93	0.141
410.28	0.158
410.63	0.141
410.98	0.144
411.33	0.147
411.68	0.160
412.03	0.191
412.38	0.179
412.73	0.208
413.09	0.235
413.44	0.303
413.79	0.331
414.14	0.370
414.49	0.426
414.84	0.443
415.19	0.476
415.54	0.511
415.89	0.507
416.24	0.565
416.59	0.596
416.94	0.628
417.29	0.663
417.64	0.666
417.99	0.688
418.34	0.703
418.69	0.718
419.04	0.720
419.39	0.720
419.74	0.726
420.09	0.723
420.44	0.735
420.79	0.737
421.14	0.716
421.49	0.741
421.84	0.733
422.19	0.731
422.54	0.724
422.89	0.728
423.24	0.722
423.59	0.718
423.94	0.713
424.29	0.691
424.64	0.680
424.99	0.674
425.34	0.632
425.68	0.613
426.03	0.575
426.38	0.571
426.73	0.546
427.08	0.527
427.43	0.540
427.78	0.523
428.13	0.511
428.48	0.509
428.83	0.512
429.18	0.523
429.53	0.531
429.87	0.538
430.22	0.527
430.57	0.547
430.92	0.550
431.27	0.551
431.62	0.553
431.97	0.559
432.32	0.546
432.67	0.540
433.01	0.533
433.36	0.520
433.71	0.510
434.06	0.512
434.41	0.490
434.76	0.502
435.11	0.502
435.45	0.503
435.80	0.496
436.15	0.515
436.50	0.532
436.85	0.550
437.20	0.549
437.54	0.557
437.89	0.558
438.24	0.574
438.59	0.566
438.94	0.559
439.29	0.552
439.63	0.556
439.98	0.539
440.33	0.525
440.68	0.528
441.03	0.540
441.37	0.562
441.72	0.568
442.07	0.576
442.42	0.583
442.76	0.608
443.11	0.616
443.46	0.637
443.81	0.650
444.16	0.671
444.50	0.670
444.85	0.669
445.20	0.663
445.55	0.663
445.89	0.652
446.24	0.643
446.59	0.609
446.94	0.601
447.28	0.574
447.63	0.549
447.98	0.518
448.32	0.487
448.67	0.463
449.02	0.436
449.37	0.415
449.71	0.406
450.06	0.397
450.41	0.410
450.75	0.402
451.10	0.414
451.45	0.409
451.79	0.396
452.14	0.395
452.49	0.398
452.84	0.397
453.18	0.384
453.53	0.364
453.88	0.358
454.22	0.355
454.57	0.382
454.92	0.389
455.26	0.416
455.61	0.456
455.95	0.486
456.30	0.499
456.65	0.527
456.99	0.555
457.34	0.586
457.69	0.611
458.03	0.622
458.38	0.623
458.73	0.617
459.07	0.603
459.42	0.574
459.76	0.542
460.11	0.517
460.46	0.481
460.80	0.453
461.15	0.414
461.49	0.376
461.84	0.348
462.19	0.322
462.53	0.302
462.88	0.304
463.22	0.301
463.57	0.310
463.91	0.310
464.26	0.325
464.61	0.338
464.95	0.334
465.30	0.330
465.64	0.348
465.99	0.354
466.33	0.372
466.68	0.362
467.02	0.370
467.37	0.363
467.71	0.357
468.06	0.345
468.41	0.320
468.75	0.311
469.10	0.320
469.44	0.279
469.79	0.247
470.13	0.192
470.48	0.185
470.82	0.158
471.17	0.158
471.51	0.151
471.86	0.139
472.20	0.151
472.55	0.158
472.89	0.137
473.23	0.135
473.58	0.135
473.92	0.156
474.27	0.152
474.61	0.145
474.96	0.141
475.30	0.146
475.65	0.133
475.99	0.117
476.34	0.110
476.68	0.116
477.02	0.128
477.37	0.127
477.71	0.158
478.06	0.178
478.40	0.256
478.75	0.326
479.09	0.407
479.43	0.506
479.78	0.584
480.12	0.660
480.47	0.727
480.81	0.789
481.15	0.851
481.50	0.905
481.84	0.963
482.19	1.008
482.53	1.045
482.87	1.069
483.22	1.067
483.56	1.059
483.90	1.031
484.25	1.003
484.59	0.968
484.94	0.939
485.28	0.905
485.62	0.862
485.97	0.806
486.31	0.767
486.65	0.734
487.00	0.714
487.34	0.698
487.68	0.690
488.03	0.675
488.37	0.668
488.71	0.656
489.06	0.637
489.40	0.632
489.74	0.626
490.09	0.613
490.43	0.597
490.77	0.567
491.11	0.531
491.46	0.503
491.80	0.480
492.14	0.443
492.49	0.409
492.83	0.366
493.17	0.314
493.51	0.274
493.86	0.232
494.20	0.196
494.54	0.178
494.88	0.188
495.23	0.205
495.57	0.221
495.91	0.245
496.25	0.269
496.60	0.282
496.94	0.295
497.28	0.301
497.62	0.303
497.97	0.306
498.31	0.315
498.65	0.324
498.99	0.317
499.33	0.322
499.68	0.312
500.02	0.314
500.36	0.317
500.70	0.342
501.04	0.344
501.39	0.358
501.73	0.380
502.07	0.422
502.41	0.431
502.75	0.469
503.09	0.489
503.44	0.531
503.78	0.561
504.12	0.602
504.46	0.634
504.80	0.699
505.14	0.757
505.49	0.804
505.83	0.827
506.17	0.883
506.51	0.919
506.85	0.974
507.19	1.017
507.53	1.060
507.87	1.113
508.22	1.153
508.56	1.187
508.90	1.217
509.24	1.258
509.58	1.313
509.92	1.351
510.26	1.401
510.60	1.444
510.94	1.480
511.28	1.521
511.63	1.575
511.97	1.636
512.31	1.691
512.65	1.762
512.99	1.839
513.33	1.940
513.67	2.035
514.01	2.142
514.35	2.244
514.69	2.373
515.03	2.496
515.37	2.613
515.71	2.727
516.05	2.841
516.39	2.941
516.73	3.042
517.07	3.117
517.41	3.186
517.75	3.267
518.09	3.336
518.43	3.395
518.77	3.443
519.11	3.498
519.45	3.554
519.79	3.637
520.13	3.721
520.47	3.818
520.81	3.927
521.15	4.059
521.49	4.175
521.83	4.315
522.17	4.454
522.51	4.626
522.85	4.806
523.19	5.008
523.53	5.209
523.87	5.430
524.21	5.629
524.55	5.822
524.89	6.002
525.23	6.162
525.57	6.305
525.91	6.444
526.25	6.563
526.58	6.676
526.92	6.764
527.26	6.846
527.60	6.897
527.94	6.952
528.28	6.997
528.62	7.033
528.96	7.067
529.30	7.094
529.64	7.117
529.97	7.149
530.31	7.166
530.65	7.204
530.99	7.224
531.33	7.277
531.67	7.311
532.01	7.340
532.35	7.367
532.68	7.395
533.02	7.418
533.36	7.443
533.70	7.446
534.04	7.454
534.38	7.456
534.71	7.475
535.05	7.473
535.39	7.483
535.73	7.498
536.07	7.525
536.41	7.563
536.74	7.606
537.08	7.647
537.42	7.722
537.76	7.782
538.10	7.843
538.43	7.907
538.77	7.962
539.11	8.020
539.45	8.069
539.79	8.113
540.12	8.153
540.46	8.174
540.80	8.191
541.14	8.177
541.47	8.165
541.81	8.157
542.15	8.130
542.49	8.110
542.82	8.075
543.16	8.052
543.50	8.018
543.84	7.976
544.17	7.949
544.51	7.932
544.85	7.918
545.18	7.937
545.52	7.916
545.86	7.909
546.20	7.898
546.53	7.887
546.87	7.851
547.21	7.830
547.54	7.809
547.88	7.785
548.22	7.754
548.55	7.747
548.89	7.712
549.23	7.712
549.56	7.711
549.90	7.716
550.24	7.712
550.57	7.712
550.91	7.698
551.25	7.692
551.58	7.697
551.92	7.684
552.26	7.664
552.59	7.642
552.93	7.613
553.27	7.587
553.60	7.545
553.94	7.503
554.27	7.484
554.61	7.462
554.95	7.424
555.28	7.383
555.62	7.345
555.95	7.323
556.29	7.290
556.63	7.253
556.96	7.203
557.30	7.172
557.63	7.139
557.97	7.089
558.31	7.040
558.64	6.993
558.98	6.956
559.31	6.942
559.65	6.878
559.98	6.823
560.32	6.775
560.65	6.723
560.99	6.666
561.33	6.624
561.66	6.571
562.00	6.530
562.33	6.479
562.67	6.428
563.00	6.358
563.34	6.310
563.67	6.257
564.01	6.203
564.34	6.156
564.68	6.109
565.01	6.049
565.35	6.012
565.68	5.931
566.02	5.853
566.35	5.776
566.69	5.683
567.02	5.629
567.36	5.550
567.69	5.481
568.03	5.407
568.36	5.317
568.69	5.232
569.03	5.157
569.36	5.101
569.70	5.045
570.03	5.002
570.37	4.969
570.70	4.908
571.04	4.860
571.37	4.800
571.70	4.733
572.04	4.677
572.37	4.623
572.71	4.546
573.04	4.490
573.37	4.424
573.71	4.347
574.04	4.276
574.38	4.189
574.71	4.111
575.04	4.051
575.38	3.986
575.71	3.909
576.05	3.840
576.38	3.789
576.71	3.711
577.05	3.662
577.38	3.590
577.71	3.496
578.05	3.438
578.38	3.375
578.71	3.299
579.05	3.255
579.38	3.214
579.71	3.158
580.05	3.086
580.38	3.033
580.71	2.977
581.05	2.949
581.38	2.908
581.71	2.878
582.05	2.856
582.38	2.827
582.71	2.776
583.04	2.751
583.38	2.718
583.71	2.702
584.04	2.684
584.38	2.662
584.71	2.637
585.04	2.670
585.37	2.662
585.71	2.648
586.04	2.634
586.37	2.660
586.70	2.672
587.04	2.679
587.37	2.688
587.70	2.680
588.03	2.677
588.37	2.677
588.70	2.644
589.03	2.611
589.36	2.594
589.69	2.562
590.03	2.511
590.36	2.453
590.69	2.409
591.02	2.360
591.35	2.333
591.69	2.325
592.02	2.295
592.35	2.290
592.68	2.286
593.01	2.264
593.35	2.272
593.68	2.293
594.01	2.308
594.34	2.293
594.67	2.296
595.00	2.284
595.34	2.252
595.67	2.217
596.00	2.180
596.33	2.141
596.66	2.112
596.99	2.053
597.32	1.988
597.65	1.932
597.99	1.887
598.32	1.826
598.65	1.788
598.98	1.736
599.31	1.709
599.64	1.708
599.97	1.719
600.30	1.732
600.63	1.752
600.96	1.755
601.30	1.767
601.63	1.800
601.96	1.800
602.29	1.796
602.62	1.790
602.95	1.788
603.28	1.773
603.61	1.727
603.94	1.679
604.27	1.638
604.60	1.586
604.93	1.558
605.26	1.502
605.59	1.485
605.92	1.459
606.25	1.438
606.58	1.408
606.91	1.350
607.24	1.321
607.57	1.305
607.90	1.275
608.23	1.243
608.56	1.186
608.89	1.134
609.22	1.089
609.55	1.019
609.88	0.948
610.21	0.881
610.54	0.824
610.87	0.767
611.20	0.682
611.53	0.622
611.86	0.577
612.19	0.507
612.52	0.450
612.85	0.388
613.18	0.370
613.51	0.318
613.84	0.261
614.17	0.198
614.49	0.177
614.82	0.126
615.15	0.095
615.48	0.068
615.81	0.054
616.14	0.057
616.47	0.028
616.80	-0.035
617.13	-0.039
617.46	-0.036
617.78	-0.044
618.11	-0.081
618.44	-0.082
618.77	-0.113
619.10	-0.147
619.43	-0.183
619.76	-0.223
620.09	-0.226
620.41	-0.220
620.74	-0.222
621.07	-0.204
621.40	-0.188
621.73	-0.185
622.06	-0.194
622.38	-0.190
622.71	-0.173
623.04	-0.150
623.37	-0.114
623.70	-0.108
624.02	-0.073
624.35	-0.034
624.68	-0.019
625.01	-0.000
625.34	0.032
625.66	0.073
625.99	0.116
626.32	0.124
626.65	0.132
626.98	0.127
627.30	0.139
627.63	0.110
627.96	0.046
628.29	-0.018
628.61	-0.065
628.94	-0.118
629.27	-0.157
629.60	-0.250
629.92	-0.266
630.25	-0.327
630.58	-0.370
630.91	-0.412
631.23	-0.451
631.56	-0.451
631.89	-0.486
632.21	-0.496
632.54	-0.503
632.87	-0.534
633.19	-0.539
633.52	-0.596
633.85	-0.576
634.18	-0.631
634.50	-0.700
634.83	-0.715
635.16	-0.765
635.48	-0.787
635.81	-0.855
636.14	-0.946
636.46	-1.016
636.79	-1.048
637.11	-1.081
637.44	-1.170
637.77	-1.190
638.09	-1.234
638.42	-1.310
638.75	-1.327
639.07	-1.331
639.40	-1.335
639.73	-1.335
640.05	-1.356
640.38	-1.356
640.70	-1.416
641.03	-1.410
641.36	-1.416
641.68	-1.404
642.01	-1.401
642.33	-1.446
642.66	-1.479
642.98	-1.518
643.31	-1.532
643.64	-1.520
643.96	-1.540
644.29	-1.523
644.61	-1.508
644.94	-1.525
645.26	-1.496
645.59	-1.477
645.91	-1.420
646.24	-1.383
646.56	-1.351
646.89	-1.314
647.22	-1.291
647.54	-1.285
647.87	-1.237
648.19	-1.272
648.52	-1.250
648.84	-1.251
649.17	-1.252
649.49	-1.289
649.82	-1.319
650.14	-1.315
650.47	-1.349
