OOIBase32 Version 2.0.0.6 Data File
++++++++++++++++++++++++++++++++++++
Date: 01-23-2012, 23:18:55
User: Valued Ocean Optics Customer
Spectrometer Serial Number: USB2E2917
Spectrometer Channel: Master
Integration Time (msec): 5
Spectra Averaged: 10
Boxcar Smoothing: 5
Correct for Electrical Dark: Enabled
Time Normalized: Disabled
Dual-beam Reference: Disabled
Reference Channel: Master
Temperature: Not acquired
Spectrometer Type: S2000
ADC Type: USB2000
Number of Pixels in File: 2048
Graph Title: 
>>>>>Begin Spectral Data<<<<<
180.30	0.000
180.67	0.000
181.03	-0.124
181.40	326.538
181.77	-8025.459
182.14	69.458
182.51	-631.006
182.88	75.858
183.25	56.658
183.62	55.997
183.99	306.289
184.36	0.329
184.73	77.143
185.10	62.048
185.46	-473.137
185.83	398.888
186.20	1778.220
186.57	-14.221
186.94	131.848
187.31	29.576
187.68	-18.097
188.05	27.606
188.42	80.716
188.78	108.589
189.15	707.167
189.52	-146.576
189.89	-39.580
190.26	-19.091
190.63	14.942
191.00	25.011
191.37	24.931
191.73	30.501
192.10	18.499
192.47	19.894
192.84	19.517
193.21	34.690
193.58	15.593
193.94	6.806
194.31	2.531
194.68	-3.427
195.05	-21.481
195.42	-32.235
195.79	-46.755
196.15	-53.385
196.52	-82.591
196.89	-123.175
197.26	-146.393
197.63	-91.736
198.00	-75.480
198.36	-78.002
198.73	-119.500
199.10	-94.697
199.47	-75.711
199.84	-67.448
200.20	-64.889
200.57	-56.932
200.94	-33.758
201.31	-28.762
201.68	-40.312
202.04	-47.886
202.41	-50.136
202.78	-51.574
203.15	-59.370
203.51	-47.726
203.88	-55.178
204.25	-57.051
204.62	-58.441
204.98	-68.201
205.35	-71.034
205.72	-65.944
206.09	-76.041
206.46	-130.565
206.82	-111.535
207.19	-97.195
207.56	-168.121
207.92	-140.377
208.29	-153.237
208.66	-102.747
209.03	-110.331
209.39	-75.585
209.76	-77.453
210.13	-117.485
210.50	-75.442
210.86	-64.364
211.23	-87.736
211.60	-48.049
211.96	-52.836
212.33	-24.371
212.70	-36.497
213.07	-24.953
213.43	-61.573
213.80	-64.965
214.17	-29.098
214.53	-15.951
214.90	-13.148
215.27	1.007
215.63	-5.219
216.00	3.869
216.37	-0.074
216.74	-1.823
217.10	5.253
217.47	10.121
217.84	13.545
218.20	7.767
218.57	6.561
218.94	5.926
219.30	-1.262
219.67	-9.338
220.04	-14.614
220.40	-18.347
220.77	-23.104
221.13	-24.889
221.50	-23.845
221.87	-22.369
222.23	-22.859
222.60	-31.904
222.97	-31.985
223.33	-27.032
223.70	-20.239
224.07	-18.286
224.43	-15.562
224.80	-9.915
225.16	-11.598
225.53	-11.810
225.90	-17.432
226.26	-14.254
226.63	-11.182
226.99	-9.277
227.36	-7.485
227.73	-4.528
228.09	-4.298
228.46	-3.198
228.82	-3.123
229.19	-2.766
229.56	-2.438
229.92	1.433
230.29	2.812
230.65	2.662
231.02	0.358
231.38	-2.647
231.75	-5.716
232.12	-9.224
232.48	-13.148
232.85	-14.537
233.21	-14.388
233.58	-15.710
233.94	-14.931
234.31	-16.237
234.68	-16.295
235.04	-13.732
235.41	-10.823
235.77	-8.565
236.14	-5.661
236.50	-2.103
236.87	-1.601
237.23	-1.350
237.60	-1.195
237.96	-1.470
238.33	-2.861
238.69	-2.733
239.06	-2.399
239.42	-2.699
239.79	-3.487
240.15	-3.291
240.52	-3.148
240.88	-2.471
241.25	-2.371
241.61	-1.546
241.98	-1.602
242.34	-1.112
242.71	-0.922
243.07	-0.842
243.44	-0.948
243.80	-0.712
244.17	-0.530
244.53	-0.782
244.90	-0.993
245.26	-1.000
245.63	-1.355
245.99	-1.348
246.36	-1.403
246.72	-1.124
247.09	-1.577
247.45	-1.206
247.81	-1.111
248.18	-1.176
248.54	-1.204
248.91	-1.307
249.27	-1.235
249.64	-0.737
250.00	-0.511
250.36	-0.509
250.73	-1.072
251.09	-0.950
251.46	-1.329
251.82	-1.150
252.19	-1.224
252.55	-1.199
252.91	-1.014
253.28	-1.104
253.64	-1.978
254.01	-2.141
254.37	-1.769
254.73	-1.403
255.10	-0.887
255.46	-0.268
255.83	-0.433
256.19	-0.482
256.55	-0.678
256.92	-0.553
257.28	-0.532
257.65	-0.144
258.01	0.020
258.37	-0.193
258.74	-0.259
259.10	-0.310
259.46	-0.591
259.83	-0.627
260.19	-0.579
260.55	-0.412
260.92	-0.595
261.28	-0.493
261.64	-0.387
262.01	-0.424
262.37	-0.216
262.73	-0.270
263.10	-0.244
263.46	-0.292
263.82	-0.325
264.19	-0.336
264.55	-0.552
264.91	-0.556
265.28	-0.725
265.64	-1.081
266.00	-1.279
266.37	-1.196
266.73	-1.109
267.09	-1.173
267.46	-1.155
267.82	-1.129
268.18	-1.212
268.54	-0.996
268.91	-0.966
269.27	-0.933
269.63	-0.681
270.00	-0.609
270.36	-0.660
270.72	-0.664
271.08	-0.657
271.45	-0.851
271.81	-0.837
272.17	-0.739
272.53	-1.002
272.90	-1.010
273.26	-0.882
273.62	-1.191
273.98	-1.366
274.35	-1.363
274.71	-1.160
275.07	-1.067
275.43	-0.725
275.80	-0.700
276.16	-0.609
276.52	-0.258
276.88	-0.257
277.25	-0.560
277.61	-0.705
277.97	-0.804
278.33	-0.756
278.69	-1.144
279.06	-1.137
279.42	-1.150
279.78	-1.217
280.14	-1.218
280.50	-1.154
280.87	-1.097
281.23	-0.902
281.59	-0.609
281.95	-0.440
282.31	-0.261
282.68	-0.308
283.04	-0.345
283.40	-0.303
283.76	-0.161
284.12	-0.076
284.48	-0.067
284.85	-0.051
285.21	-0.001
285.57	-0.207
285.93	-0.166
286.29	-0.500
286.65	-0.326
287.02	-0.110
287.38	-0.221
287.74	-0.361
288.10	-0.478
288.46	-0.666
288.82	-0.708
289.18	-0.699
289.54	-0.535
289.91	-0.514
290.27	-0.343
290.63	-0.188
290.99	-0.407
291.35	-0.324
291.71	-0.086
292.07	-0.160
292.43	-0.056
292.79	0.062
293.16	-0.027
293.52	0.076
293.88	0.166
294.24	0.210
294.60	0.180
294.96	0.290
295.32	0.343
295.68	0.212
296.04	0.261
296.40	0.346
296.76	0.390
297.12	0.364
297.49	0.177
297.85	0.089
298.21	0.098
298.57	-0.203
298.93	-0.331
299.29	-0.574
299.65	-0.490
300.01	-0.420
300.37	-0.422
300.73	-0.412
301.09	-0.330
301.45	-0.121
301.81	-0.048
302.17	-0.071
302.53	0.007
302.89	-0.032
303.25	0.084
303.61	0.061
303.97	-0.224
304.33	-0.377
304.69	-0.405
305.05	-0.439
305.41	-0.485
305.77	-0.524
306.13	-0.448
306.49	-0.310
306.85	-0.233
307.21	-0.200
307.57	-0.175
307.93	0.005
308.29	0.200
308.65	0.291
309.01	0.286
309.37	0.229
309.73	0.199
310.09	0.220
310.45	0.130
310.81	0.079
311.17	0.046
311.53	0.040
311.89	0.041
312.25	-0.019
312.61	-0.099
312.96	-0.120
313.32	-0.108
313.68	-0.180
314.04	-0.278
314.40	-0.072
314.76	-0.001
315.12	0.012
315.48	-0.040
315.84	-0.143
316.20	-0.220
316.56	-0.310
316.92	-0.367
317.27	-0.450
317.63	-0.332
317.99	-0.383
318.35	-0.450
318.71	-0.479
319.07	-0.395
319.43	-0.379
319.79	-0.172
320.15	-0.171
320.50	-0.103
320.86	-0.054
321.22	0.047
321.58	0.057
321.94	0.103
322.30	-0.001
322.66	-0.051
323.01	-0.211
323.37	-0.317
323.73	-0.408
324.09	-0.432
324.45	-0.477
324.81	-0.500
325.17	-0.499
325.52	-0.651
325.88	-0.683
326.24	-0.588
326.60	-0.515
326.96	-0.437
327.31	-0.354
327.67	-0.456
328.03	-0.536
328.39	-0.563
328.75	-0.510
329.11	-0.486
329.46	-0.373
329.82	-0.323
330.18	-0.390
330.54	-0.456
330.90	-0.473
331.25	-0.475
331.61	-0.338
331.97	-0.203
332.33	-0.136
332.68	-0.110
333.04	-0.070
333.40	-0.142
333.76	-0.151
334.11	-0.135
334.47	-0.129
334.83	-0.180
335.19	-0.231
335.54	-0.258
335.90	-0.313
336.26	-0.363
336.62	-0.490
336.97	-0.577
337.33	-0.574
337.69	-0.608
338.05	-0.665
338.40	-0.675
338.76	-0.647
339.12	-0.606
339.48	-0.649
339.83	-0.625
340.19	-0.615
340.55	-0.498
340.90	-0.489
341.26	-0.509
341.62	-0.496
341.97	-0.479
342.33	-0.458
342.69	-0.423
343.04	-0.419
343.40	-0.454
343.76	-0.531
344.12	-0.536
344.47	-0.497
344.83	-0.464
345.19	-0.356
345.54	-0.285
345.90	-0.230
346.26	-0.190
346.61	-0.135
346.97	-0.119
347.32	-0.096
347.68	-0.004
348.04	-0.034
348.39	-0.181
348.75	-0.225
349.11	-0.332
349.46	-0.479
349.82	-0.539
350.18	-0.611
350.53	-0.627
350.89	-0.630
351.24	-0.641
351.60	-0.706
351.96	-0.632
352.31	-0.507
352.67	-0.435
353.02	-0.438
353.38	-0.351
353.74	-0.326
354.09	-0.339
354.45	-0.335
354.80	-0.378
355.16	-0.351
355.52	-0.282
355.87	-0.358
356.23	-0.368
356.58	-0.413
356.94	-0.397
357.29	-0.427
357.65	-0.424
358.00	-0.371
358.36	-0.374
358.72	-0.348
359.07	-0.334
359.43	-0.373
359.78	-0.298
360.14	-0.343
360.49	-0.321
360.85	-0.285
361.20	-0.262
361.56	-0.263
361.91	-0.274
362.27	-0.306
362.62	-0.303
362.98	-0.284
363.33	-0.263
363.69	-0.298
364.04	-0.209
364.40	-0.219
364.75	-0.196
365.11	-0.165
365.46	-0.200
365.82	-0.139
366.17	-0.146
366.53	-0.109
366.88	-0.096
367.24	-0.093
367.59	-0.071
367.95	-0.109
368.30	-0.132
368.66	-0.140
369.01	-0.200
369.37	-0.152
369.72	-0.167
370.08	-0.115
370.43	-0.094
370.78	-0.135
371.14	-0.211
371.49	-0.207
371.85	-0.205
372.20	-0.161
372.56	-0.158
372.91	-0.122
373.26	-0.099
373.62	-0.123
373.97	-0.096
374.33	-0.151
374.68	-0.115
375.03	-0.049
375.39	-0.080
375.74	-0.139
376.10	-0.169
376.45	-0.152
376.80	-0.143
377.16	-0.194
377.51	-0.206
377.87	-0.247
378.22	-0.240
378.57	-0.268
378.93	-0.236
379.28	-0.208
379.63	-0.155
379.99	-0.106
380.34	-0.134
380.70	-0.141
381.05	-0.092
381.40	-0.107
381.76	-0.086
382.11	-0.077
382.46	-0.019
382.82	-0.021
383.17	-0.000
383.52	-0.015
383.88	-0.044
384.23	-0.055
384.58	-0.058
384.94	-0.091
385.29	-0.028
385.64	-0.016
385.99	-0.010
386.35	-0.044
386.70	-0.062
387.05	-0.113
387.41	-0.111
387.76	-0.111
388.11	-0.105
388.47	-0.112
388.82	-0.097
389.17	-0.116
389.52	-0.122
389.88	-0.091
390.23	-0.075
390.58	-0.054
390.93	-0.006
391.29	0.003
391.64	0.024
391.99	0.070
392.34	0.101
392.70	0.101
393.05	0.104
393.40	0.107
393.75	0.086
394.11	0.079
394.46	0.037
394.81	0.016
395.16	-0.012
395.52	-0.024
395.87	-0.065
396.22	-0.071
396.57	-0.093
396.92	-0.128
397.28	-0.180
397.63	-0.242
397.98	-0.252
398.33	-0.232
398.68	-0.243
399.04	-0.235
399.39	-0.233
399.74	-0.251
400.09	-0.269
400.44	-0.258
400.80	-0.248
401.15	-0.236
401.50	-0.207
401.85	-0.196
402.20	-0.213
402.55	-0.192
402.90	-0.227
403.26	-0.274
403.61	-0.261
403.96	-0.274
404.31	-0.270
404.66	-0.253
405.01	-0.266
405.36	-0.254
405.72	-0.275
406.07	-0.275
406.42	-0.303
406.77	-0.295
407.12	-0.272
407.47	-0.273
407.82	-0.260
408.17	-0.284
408.53	-0.315
408.88	-0.315
409.23	-0.327
409.58	-0.351
409.93	-0.341
410.28	-0.330
410.63	-0.319
410.98	-0.329
411.33	-0.332
411.68	-0.321
412.03	-0.296
412.38	-0.301
412.73	-0.274
413.09	-0.253
413.44	-0.222
413.79	-0.212
414.14	-0.194
414.49	-0.157
414.84	-0.108
415.19	-0.085
415.54	-0.074
415.89	-0.037
416.24	0.021
416.59	0.038
416.94	0.059
417.29	0.087
417.64	0.092
417.99	0.102
418.34	0.115
418.69	0.116
419.04	0.113
419.39	0.127
419.74	0.135
420.09	0.133
420.44	0.137
420.79	0.134
421.14	0.137
421.49	0.161
421.84	0.167
422.19	0.173
422.54	0.167
422.89	0.165
423.24	0.156
423.59	0.133
423.94	0.124
424.29	0.127
424.64	0.119
424.99	0.096
425.34	0.043
425.68	0.022
426.03	-0.014
426.38	-0.021
426.73	-0.015
427.08	-0.031
427.43	-0.017
427.78	-0.017
428.13	-0.045
428.48	-0.047
428.83	-0.044
429.18	-0.013
429.53	-0.007
429.87	-0.008
430.22	-0.020
430.57	-0.022
430.92	-0.024
431.27	-0.024
431.62	-0.032
431.97	-0.016
432.32	-0.019
432.67	-0.026
433.01	-0.043
433.36	-0.065
433.71	-0.073
434.06	-0.093
434.41	-0.095
434.76	-0.086
435.11	-0.090
435.45	-0.079
435.80	-0.076
436.15	-0.074
436.50	-0.047
436.85	-0.033
437.20	-0.030
437.54	-0.022
437.89	0.001
438.24	-0.000
438.59	-0.006
438.94	-0.015
439.29	-0.037
439.63	-0.041
439.98	-0.040
440.33	-0.067
440.68	-0.072
441.03	-0.065
441.37	-0.059
441.72	-0.058
442.07	-0.063
442.42	-0.059
442.76	-0.047
443.11	-0.039
443.46	-0.035
443.81	-0.019
444.16	-0.005
444.50	-0.006
444.85	-0.016
445.20	-0.021
445.55	-0.023
445.89	-0.017
446.24	-0.023
446.59	-0.054
446.94	-0.063
447.28	-0.084
447.63	-0.107
447.98	-0.139
448.32	-0.161
448.67	-0.162
449.02	-0.191
449.37	-0.222
449.71	-0.235
450.06	-0.242
450.41	-0.228
450.75	-0.238
451.10	-0.235
451.45	-0.258
451.79	-0.270
452.14	-0.273
452.49	-0.278
452.84	-0.277
453.18	-0.270
453.53	-0.289
453.88	-0.285
454.22	-0.290
454.57	-0.277
454.92	-0.271
455.26	-0.253
455.61	-0.210
455.95	-0.182
456.30	-0.156
456.65	-0.116
456.99	-0.102
457.34	-0.075
457.69	-0.074
458.03	-0.070
458.38	-0.066
458.73	-0.079
459.07	-0.089
459.42	-0.125
459.76	-0.148
460.11	-0.191
460.46	-0.238
460.80	-0.266
461.15	-0.294
461.49	-0.316
461.84	-0.324
462.19	-0.346
462.53	-0.345
462.88	-0.338
463.22	-0.330
463.57	-0.336
463.91	-0.331
464.26	-0.313
464.61	-0.323
464.95	-0.336
465.30	-0.352
465.64	-0.347
465.99	-0.346
466.33	-0.341
466.68	-0.353
467.02	-0.362
467.37	-0.367
467.71	-0.373
468.06	-0.385
468.41	-0.384
468.75	-0.390
469.10	-0.382
469.44	-0.420
469.79	-0.440
470.13	-0.488
470.48	-0.511
470.82	-0.518
471.17	-0.515
471.51	-0.544
471.86	-0.569
472.20	-0.570
472.55	-0.571
472.89	-0.584
473.23	-0.586
473.58	-0.596
473.92	-0.589
474.27	-0.594
474.61	-0.613
474.96	-0.622
475.30	-0.603
475.65	-0.607
475.99	-0.621
476.34	-0.619
476.68	-0.628
477.02	-0.623
477.37	-0.618
477.71	-0.589
478.06	-0.553
478.40	-0.475
478.75	-0.409
479.09	-0.327
479.43	-0.245
479.78	-0.173
480.12	-0.112
480.47	-0.052
480.81	-0.003
481.15	0.044
481.50	0.087
481.84	0.125
482.19	0.149
482.53	0.169
482.87	0.181
483.22	0.179
483.56	0.176
483.90	0.159
484.25	0.142
484.59	0.130
484.94	0.112
485.28	0.090
485.62	0.061
485.97	0.029
486.31	0.003
486.65	-0.019
487.00	-0.036
487.34	-0.056
487.68	-0.072
488.03	-0.090
488.37	-0.108
488.71	-0.123
489.06	-0.141
489.40	-0.148
489.74	-0.153
490.09	-0.172
490.43	-0.194
490.77	-0.223
491.11	-0.259
491.46	-0.288
491.80	-0.315
492.14	-0.357
492.49	-0.389
492.83	-0.437
493.17	-0.486
493.51	-0.531
493.86	-0.563
494.20	-0.596
494.54	-0.618
494.88	-0.612
495.23	-0.611
495.57	-0.607
495.91	-0.599
496.25	-0.593
496.60	-0.586
496.94	-0.585
497.28	-0.595
497.62	-0.603
497.97	-0.605
498.31	-0.604
498.65	-0.615
498.99	-0.627
499.33	-0.632
499.68	-0.635
500.02	-0.648
500.36	-0.651
500.70	-0.654
501.04	-0.650
501.39	-0.662
501.73	-0.667
502.07	-0.657
502.41	-0.657
502.75	-0.636
503.09	-0.629
503.44	-0.611
503.78	-0.600
504.12	-0.590
504.46	-0.573
504.80	-0.548
505.14	-0.511
505.49	-0.475
505.83	-0.444
506.17	-0.408
506.51	-0.394
506.85	-0.366
507.19	-0.348
507.53	-0.325
507.87	-0.299
508.22	-0.279
508.56	-0.274
508.90	-0.262
509.24	-0.246
509.58	-0.243
509.92	-0.229
510.26	-0.208
510.60	-0.197
510.94	-0.181
511.28	-0.174
511.63	-0.153
511.97	-0.128
512.31	-0.090
512.65	-0.054
512.99	-0.016
513.33	0.052
513.67	0.106
514.01	0.191
514.35	0.262
514.69	0.337
515.03	0.424
515.37	0.514
515.71	0.590
516.05	0.666
516.39	0.730
516.73	0.793
517.07	0.838
517.41	0.876
517.75	0.899
518.09	0.928
518.43	0.970
518.77	0.982
519.11	1.003
519.45	1.022
519.79	1.051
520.13	1.077
520.47	1.124
520.81	1.180
521.15	1.262
521.49	1.343
521.83	1.434
522.17	1.504
522.51	1.628
522.85	1.741
523.19	1.885
523.53	2.026
523.87	2.188
524.21	2.335
524.55	2.467
524.89	2.585
525.23	2.697
525.57	2.793
525.91	2.881
526.25	2.956
526.58	3.030
526.92	3.094
527.26	3.154
527.60	3.183
527.94	3.211
528.28	3.232
528.62	3.243
528.96	3.253
529.30	3.265
529.64	3.283
529.97	3.298
530.31	3.305
530.65	3.303
530.99	3.308
531.33	3.333
531.67	3.348
532.01	3.364
532.35	3.386
532.68	3.397
533.02	3.414
533.36	3.421
533.70	3.425
534.04	3.426
534.38	3.434
534.71	3.434
535.05	3.431
535.39	3.431
535.73	3.437
536.07	3.455
536.41	3.478
536.74	3.508
537.08	3.540
537.42	3.599
537.76	3.653
538.10	3.706
538.43	3.758
538.77	3.808
539.11	3.846
539.45	3.892
539.79	3.931
540.12	3.963
540.46	3.974
540.80	3.988
541.14	3.973
541.47	3.951
541.81	3.930
542.15	3.908
542.49	3.878
542.82	3.857
543.16	3.818
543.50	3.781
543.84	3.733
544.17	3.704
544.51	3.678
544.85	3.653
545.18	3.643
545.52	3.634
545.86	3.609
546.20	3.599
546.53	3.575
546.87	3.548
547.21	3.515
547.54	3.491
547.88	3.479
548.22	3.448
548.55	3.434
548.89	3.411
549.23	3.391
549.56	3.370
549.90	3.376
550.24	3.371
550.57	3.381
550.91	3.383
551.25	3.387
551.58	3.375
551.92	3.381
552.26	3.373
552.59	3.377
552.93	3.369
553.27	3.380
553.60	3.333
553.94	3.302
554.27	3.254
554.61	3.254
554.95	3.229
555.28	3.207
555.62	3.162
555.95	3.139
556.29	3.108
556.63	3.075
556.96	3.020
557.30	3.010
557.63	2.994
557.97	2.982
558.31	2.912
558.64	2.900
558.98	2.876
559.31	2.864
559.65	2.835
559.98	2.809
560.32	2.774
560.65	2.755
560.99	2.735
561.33	2.703
561.66	2.670
562.00	2.649
562.33	2.603
562.67	2.558
563.00	2.537
563.34	2.501
563.67	2.466
564.01	2.434
564.34	2.400
564.68	2.350
565.01	2.319
565.35	2.281
565.68	2.239
566.02	2.197
566.35	2.149
566.69	2.071
567.02	2.054
567.36	2.001
567.69	1.960
568.03	1.926
568.36	1.890
568.69	1.844
569.03	1.809
569.36	1.788
569.70	1.746
570.03	1.738
570.37	1.708
570.70	1.658
571.04	1.616
571.37	1.578
571.70	1.516
572.04	1.475
572.37	1.428
572.71	1.383
573.04	1.329
573.37	1.298
573.71	1.240
574.04	1.202
574.38	1.147
574.71	1.121
575.04	1.079
575.38	1.051
575.71	1.003
576.05	0.975
576.38	0.944
576.71	0.885
577.05	0.837
577.38	0.790
577.71	0.739
578.05	0.677
578.38	0.626
578.71	0.580
579.05	0.542
579.38	0.489
579.71	0.446
580.05	0.406
580.38	0.381
580.71	0.350
581.05	0.332
581.38	0.293
581.71	0.282
582.05	0.255
582.38	0.238
582.71	0.226
583.04	0.225
583.38	0.177
583.71	0.179
584.04	0.174
584.38	0.166
584.71	0.159
585.04	0.180
585.37	0.176
585.71	0.173
586.04	0.165
586.37	0.174
586.70	0.186
587.04	0.216
587.37	0.208
587.70	0.204
588.03	0.206
588.37	0.205
588.70	0.197
589.03	0.190
589.36	0.174
589.69	0.160
590.03	0.114
590.36	0.095
590.69	0.058
591.02	0.033
591.35	0.022
591.69	0.010
592.02	-0.000
592.35	0.018
592.68	0.039
593.01	0.045
593.35	0.055
593.68	0.072
594.01	0.065
594.34	0.054
594.67	0.054
595.00	0.052
595.34	0.031
595.67	0.001
596.00	-0.037
596.33	-0.100
596.66	-0.144
596.99	-0.198
597.32	-0.273
597.65	-0.322
597.99	-0.363
598.32	-0.423
598.65	-0.482
598.98	-0.522
599.31	-0.528
599.64	-0.532
599.97	-0.517
600.30	-0.492
600.63	-0.465
600.96	-0.411
601.30	-0.396
601.63	-0.347
601.96	-0.333
602.29	-0.324
602.62	-0.317
602.95	-0.326
603.28	-0.342
603.61	-0.384
603.94	-0.432
604.27	-0.440
604.60	-0.499
604.93	-0.512
605.26	-0.566
605.59	-0.589
605.92	-0.614
606.25	-0.641
606.58	-0.681
606.91	-0.731
607.24	-0.709
607.57	-0.712
607.90	-0.756
608.23	-0.779
608.56	-0.841
608.89	-0.885
609.22	-0.925
609.55	-0.972
609.88	-1.023
610.21	-1.077
610.54	-1.128
610.87	-1.200
611.20	-1.259
611.53	-1.317
611.86	-1.352
612.19	-1.387
612.52	-1.424
612.85	-1.442
613.18	-1.467
613.51	-1.507
613.84	-1.537
614.17	-1.551
614.49	-1.558
614.82	-1.589
615.15	-1.602
615.48	-1.599
615.81	-1.618
616.14	-1.621
616.47	-1.675
616.80	-1.704
617.13	-1.715
617.46	-1.735
617.78	-1.729
618.11	-1.770
618.44	-1.802
618.77	-1.846
619.10	-1.898
619.43	-1.923
619.76	-1.973
620.09	-1.935
620.41	-1.964
620.74	-1.957
621.07	-1.924
621.40	-1.941
621.73	-1.910
622.06	-1.868
622.38	-1.823
622.71	-1.780
623.04	-1.729
623.37	-1.663
623.70	-1.643
624.02	-1.576
624.35	-1.542
624.68	-1.523
625.01	-1.482
625.34	-1.459
625.66	-1.446
625.99	-1.426
626.32	-1.430
626.65	-1.436
626.98	-1.457
627.30	-1.489
627.63	-1.531
627.96	-1.569
628.29	-1.617
628.61	-1.677
628.94	-1.721
629.27	-1.753
629.60	-1.828
629.92	-1.839
630.25	-1.890
630.58	-1.892
630.91	-1.921
631.23	-1.931
631.56	-1.948
631.89	-1.975
632.21	-1.979
632.54	-2.013
632.87	-2.044
633.19	-2.044
633.52	-2.096
633.85	-2.094
634.18	-2.168
634.50	-2.193
634.83	-2.229
635.16	-2.262
635.48	-2.300
635.81	-2.344
636.14	-2.396
636.46	-2.417
636.79	-2.457
637.11	-2.498
637.44	-2.583
637.77	-2.597
638.09	-2.659
638.42	-2.708
