OOIBase32 Version 2.0.0.6 Data File
++++++++++++++++++++++++++++++++++++
Date: 01-24-2012, 17:43:43
User: Valued Ocean Optics Customer
Spectrometer Serial Number: USB2E2917
Spectrometer Channel: Master
Integration Time (msec): 7
Spectra Averaged: 10
Boxcar Smoothing: 5
Correct for Electrical Dark: Enabled
Time Normalized: Disabled
Dual-beam Reference: Disabled
Reference Channel: Master
Temperature: Not acquired
Spectrometer Type: S2000
ADC Type: USB2000
Number of Pixels in File: 2048
Graph Title: 
>>>>>Begin Spectral Data<<<<<
180.30	0.000
180.67	0.000
181.03	47.746
181.40	-143476.190
181.77	-1484.928
182.14	80.009
182.51	-260.829
182.88	117.793
183.25	126.299
183.62	246.472
183.99	51.924
184.36	4.471
184.73	64.277
185.10	21.834
185.46	-17.529
185.83	-229.492
186.20	186.952
186.57	105.700
186.94	-137.216
187.31	68.234
187.68	-82.638
188.05	724.035
188.42	343.063
188.78	184.938
189.15	82.027
189.52	94.773
189.89	77.355
190.26	65.149
190.63	52.906
191.00	56.843
191.37	23.120
191.73	12.645
192.10	-6.775
192.47	15.777
192.84	23.320
193.21	31.093
193.58	19.030
193.94	18.129
194.31	11.104
194.68	9.901
195.05	-19.593
195.42	0.176
195.79	1.349
196.15	11.427
196.52	21.261
196.89	27.391
197.26	29.660
197.63	23.429
198.00	21.513
198.36	31.621
198.73	38.648
199.10	42.710
199.47	64.319
199.84	95.907
200.20	88.712
200.57	77.769
200.94	80.391
201.31	64.168
201.68	57.743
202.04	64.640
202.41	65.458
202.78	59.046
203.15	57.102
203.51	53.090
203.88	39.420
204.25	34.686
204.62	34.940
204.98	29.967
205.35	26.875
205.72	29.960
206.09	37.711
206.46	30.890
206.82	32.328
207.19	42.029
207.56	20.657
207.92	13.159
208.29	-3.626
208.66	-18.110
209.03	-12.948
209.39	-28.265
209.76	-28.735
210.13	-56.291
210.50	-41.111
210.86	-21.022
211.23	-15.780
211.60	-12.185
211.96	-17.630
212.33	-8.114
212.70	5.897
213.07	10.104
213.43	9.875
213.80	10.593
214.17	24.094
214.53	17.347
214.90	6.648
215.27	-7.194
215.63	-4.756
216.00	-21.096
216.37	-16.140
216.74	-14.257
217.10	-21.112
217.47	0.217
217.84	-9.905
218.20	-21.717
218.57	-21.457
218.94	-6.280
219.30	2.105
219.67	-3.191
220.04	13.663
220.40	11.027
220.77	3.978
221.13	-3.651
221.50	-13.144
221.87	-2.446
222.23	-10.098
222.60	-2.753
222.97	-6.879
223.33	2.767
223.70	6.501
224.07	3.003
224.43	-0.019
224.80	-1.522
225.16	4.118
225.53	4.728
225.90	-0.376
226.26	3.703
226.63	-0.608
226.99	0.295
227.36	-3.151
227.73	-3.553
228.09	-5.359
228.46	-4.002
228.82	-3.368
229.19	-4.608
229.56	-5.187
229.92	-3.307
230.29	-3.847
230.65	-0.819
231.02	-0.258
231.38	2.049
231.75	3.043
232.12	5.083
232.48	4.733
232.85	6.751
233.21	6.866
233.58	7.765
233.94	5.827
234.31	3.035
234.68	2.972
235.04	5.110
235.41	5.724
235.77	5.182
236.14	6.081
236.50	7.881
236.87	7.067
237.23	6.685
237.60	3.813
237.96	3.857
238.33	4.213
238.69	2.776
239.06	1.463
239.42	0.831
239.79	0.504
240.15	-0.320
240.52	-1.468
240.88	-1.373
241.25	-2.143
241.61	-1.261
241.98	-0.952
242.34	0.008
242.71	0.636
243.07	0.067
243.44	0.166
243.80	0.214
244.17	0.193
244.53	0.645
244.90	-0.066
245.26	0.599
245.63	0.335
245.99	0.199
246.36	-0.156
246.72	-0.268
247.09	-0.160
247.45	-0.466
247.81	-0.745
248.18	-0.482
248.54	-0.984
248.91	-0.879
249.27	-1.462
249.64	-1.082
250.00	-1.772
250.36	-1.592
250.73	-1.646
251.09	-1.645
251.46	-1.173
251.82	-0.350
252.19	-0.673
252.55	-0.300
252.91	-0.072
253.28	1.060
253.64	1.760
254.01	2.643
254.37	2.391
254.73	2.045
255.10	2.406
255.46	2.239
255.83	1.946
256.19	1.683
256.55	1.443
256.92	1.559
257.28	1.366
257.65	1.257
258.01	1.310
258.37	1.071
258.74	1.340
259.10	1.222
259.46	1.195
259.83	1.186
260.19	1.358
260.55	1.676
260.92	1.754
261.28	1.796
261.64	1.923
262.01	1.898
262.37	2.531
262.73	2.340
263.10	1.837
263.46	1.687
263.82	1.738
264.19	1.856
264.55	1.594
264.91	1.881
265.28	1.625
265.64	1.298
266.00	1.075
266.37	0.896
266.73	0.735
267.09	1.166
267.46	1.337
267.82	1.274
268.18	1.352
268.54	1.074
268.91	0.536
269.27	0.799
269.63	0.984
270.00	1.430
270.36	1.218
270.72	0.806
271.08	0.720
271.45	0.725
271.81	0.470
272.17	0.241
272.53	0.593
272.90	0.733
273.26	0.135
273.62	0.034
273.98	-0.313
274.35	-0.060
274.71	0.435
275.07	0.379
275.43	0.425
275.80	0.756
276.16	0.555
276.52	0.462
276.88	0.487
277.25	0.841
277.61	0.876
277.97	0.851
278.33	0.678
278.69	0.640
279.06	0.341
279.42	-0.040
279.78	-0.433
280.14	-0.361
280.50	-0.752
280.87	-0.420
281.23	-0.295
281.59	-0.431
281.95	-0.410
282.31	-0.522
282.68	-0.638
283.04	-0.362
283.40	-0.066
283.76	0.203
284.12	0.374
284.48	0.506
284.85	0.091
285.21	-0.141
285.57	-0.369
285.93	-0.253
286.29	-0.196
286.65	0.106
287.02	0.249
287.38	0.149
287.74	0.115
288.10	0.152
288.46	0.215
288.82	0.503
289.18	0.549
289.54	0.713
289.91	0.619
290.27	0.666
290.63	0.300
290.99	0.213
291.35	0.046
291.71	0.108
292.07	0.104
292.43	-0.032
292.79	0.044
293.16	0.101
293.52	0.021
293.88	0.023
294.24	-0.041
294.60	0.206
294.96	-0.010
295.32	0.195
295.68	0.044
296.04	-0.060
296.40	0.070
296.76	0.011
297.12	-0.125
297.49	-0.115
297.85	-0.219
298.21	-0.053
298.57	-0.291
298.93	-0.159
299.29	-0.339
299.65	-0.477
300.01	-0.366
300.37	-0.166
300.73	-0.248
301.09	-0.145
301.45	-0.089
301.81	-0.172
302.17	-0.444
302.53	-0.437
302.89	-0.580
303.25	-0.574
303.61	-0.499
303.97	-0.681
304.33	-0.973
304.69	-0.897
305.05	-0.866
305.41	-0.881
305.77	-0.656
306.13	-0.412
306.49	-0.510
306.85	-0.267
307.21	-0.180
307.57	-0.164
307.93	-0.154
308.29	-0.200
308.65	-0.423
309.01	-0.463
309.37	-0.443
309.73	-0.568
310.09	-0.846
310.45	-0.704
310.81	-0.980
311.17	-0.998
311.53	-1.084
311.89	-1.239
312.25	-1.275
312.61	-1.278
312.96	-1.427
313.32	-1.499
313.68	-1.599
314.04	-1.440
314.40	-1.727
314.76	-1.606
315.12	-1.812
315.48	-1.764
315.84	-1.787
316.20	-1.801
316.56	-1.850
316.92	-1.770
317.27	-2.010
317.63	-2.025
317.99	-2.255
318.35	-2.116
318.71	-2.325
319.07	-2.293
319.43	-2.494
319.79	-2.509
320.15	-2.829
320.50	-2.921
320.86	-3.170
321.22	-3.159
321.58	-3.316
321.94	-3.232
322.30	-3.208
322.66	-3.175
323.01	-3.313
323.37	-3.156
323.73	-3.409
324.09	-3.302
324.45	-3.585
324.81	-3.599
325.17	-3.621
325.52	-3.663
325.88	-3.879
326.24	-4.087
326.60	-4.251
326.96	-4.330
327.31	-4.636
327.67	-4.515
328.03	-4.655
328.39	-4.613
328.75	-4.715
329.11	-4.651
329.46	-4.840
329.82	-4.608
330.18	-4.612
330.54	-4.617
330.90	-4.629
331.25	-4.447
331.61	-4.328
331.97	-4.342
332.33	-4.255
332.68	-4.075
333.04	-4.221
333.40	-4.041
333.76	-4.116
334.11	-4.197
334.47	-4.145
334.83	-4.154
335.19	-4.248
335.54	-4.317
335.90	-4.159
336.26	-4.096
336.62	-4.159
336.97	-4.229
337.33	-4.335
337.69	-4.443
338.05	-4.279
338.40	-4.273
338.76	-4.317
339.12	-4.278
339.48	-4.288
339.83	-4.278
340.19	-4.250
340.55	-4.320
340.90	-4.236
341.26	-4.105
341.62	-4.063
341.97	-4.191
342.33	-4.161
342.69	-4.067
343.04	-4.115
343.40	-4.128
343.76	-4.183
344.12	-4.226
344.47	-4.194
344.83	-4.164
345.19	-4.303
345.54	-4.338
345.90	-4.425
346.26	-4.405
346.61	-4.436
346.97	-4.513
347.32	-4.639
347.68	-4.761
348.04	-4.909
348.39	-4.884
348.75	-5.033
349.11	-5.054
349.46	-5.176
349.82	-5.095
350.18	-5.152
350.53	-5.254
350.89	-5.316
351.24	-5.227
351.60	-5.259
351.96	-5.172
352.31	-5.259
352.67	-5.152
353.02	-5.097
353.38	-4.961
353.74	-4.890
354.09	-4.806
354.45	-4.718
354.80	-4.589
355.16	-4.590
355.52	-4.413
355.87	-4.365
356.23	-4.325
356.58	-4.380
356.94	-4.396
357.29	-4.384
357.65	-4.351
358.00	-4.472
358.36	-4.454
358.72	-4.516
359.07	-4.593
359.43	-4.619
359.78	-4.589
360.14	-4.672
360.49	-4.738
360.85	-4.745
361.20	-4.873
361.56	-5.075
361.91	-5.169
362.27	-5.250
362.62	-5.297
362.98	-5.399
363.33	-5.522
363.69	-5.695
364.04	-5.742
364.40	-5.846
364.75	-5.923
365.11	-5.986
365.46	-5.994
365.82	-6.062
366.17	-6.169
366.53	-6.229
366.88	-6.203
367.24	-6.237
367.59	-6.193
367.95	-6.120
368.30	-6.057
368.66	-6.071
369.01	-5.976
369.37	-5.840
369.72	-5.719
370.08	-5.558
370.43	-5.483
370.78	-5.435
371.14	-5.334
371.49	-5.289
371.85	-5.295
372.20	-5.259
372.56	-5.275
372.91	-5.384
373.26	-5.544
373.62	-5.660
373.97	-5.777
374.33	-5.825
374.68	-5.844
375.03	-5.954
375.39	-6.035
375.74	-6.152
376.10	-6.174
376.45	-6.062
376.80	-5.991
377.16	-5.828
377.51	-5.670
377.87	-5.567
378.22	-5.441
378.57	-5.349
378.93	-5.264
379.28	-5.135
379.63	-4.865
379.99	-4.710
380.34	-4.618
380.70	-4.480
381.05	-4.401
381.40	-4.377
381.76	-4.375
382.11	-4.420
382.46	-4.396
382.82	-4.432
383.17	-4.472
383.52	-4.581
383.88	-4.645
384.23	-4.787
384.58	-4.883
384.94	-5.064
385.29	-5.140
385.64	-5.179
385.99	-5.229
386.35	-5.305
386.70	-5.303
387.05	-5.353
387.41	-5.394
387.76	-5.419
388.11	-5.381
388.47	-5.332
388.82	-5.236
389.17	-5.181
389.52	-5.130
389.88	-5.039
390.23	-4.951
390.58	-4.780
390.93	-4.643
391.29	-4.544
391.64	-4.472
391.99	-4.432
392.34	-4.411
392.70	-4.452
393.05	-4.460
393.40	-4.523
393.75	-4.611
394.11	-4.732
394.46	-4.975
394.81	-5.221
395.16	-5.414
395.52	-5.637
395.87	-5.923
396.22	-6.232
396.57	-6.500
396.92	-6.850
397.28	-7.114
397.63	-7.375
397.98	-7.625
398.33	-7.867
398.68	-7.986
399.04	-8.103
399.39	-8.230
399.74	-8.171
400.09	-8.160
400.44	-8.080
400.80	-7.955
401.15	-7.890
401.50	-7.771
401.85	-7.623
402.20	-7.465
402.55	-7.396
402.90	-7.364
403.26	-7.289
403.61	-7.340
403.96	-7.311
404.31	-7.339
404.66	-7.401
405.01	-7.404
405.36	-7.491
405.72	-7.606
406.07	-7.694
406.42	-7.786
406.77	-7.834
407.12	-7.867
407.47	-7.863
407.82	-7.921
408.17	-7.989
408.53	-7.994
408.88	-8.063
409.23	-8.062
409.58	-8.097
409.93	-8.127
410.28	-8.142
410.63	-8.187
410.98	-8.222
411.33	-8.217
411.68	-8.137
412.03	-8.040
412.38	-7.915
412.73	-7.686
413.09	-7.500
413.44	-7.230
413.79	-6.963
414.14	-6.600
414.49	-6.281
414.84	-5.957
415.19	-5.635
415.54	-5.326
415.89	-5.005
416.24	-4.706
416.59	-4.469
416.94	-4.217
417.29	-4.026
417.64	-3.824
417.99	-3.694
418.34	-3.538
418.69	-3.417
419.04	-3.306
419.39	-3.229
419.74	-3.134
420.09	-3.087
420.44	-3.046
420.79	-3.045
421.14	-3.030
421.49	-3.036
421.84	-3.063
422.19	-3.114
422.54	-3.168
422.89	-3.263
423.24	-3.372
423.59	-3.521
423.94	-3.700
424.29	-3.872
424.64	-4.025
424.99	-4.213
425.34	-4.402
425.68	-4.576
426.03	-4.717
426.38	-4.875
426.73	-4.999
427.08	-5.050
427.43	-5.071
427.78	-5.001
428.13	-4.952
428.48	-4.882
428.83	-4.811
429.18	-4.731
429.53	-4.671
429.87	-4.649
430.22	-4.606
430.57	-4.581
430.92	-4.588
431.27	-4.619
431.62	-4.666
431.97	-4.765
432.32	-4.882
432.67	-4.975
433.01	-5.084
433.36	-5.201
433.71	-5.316
434.06	-5.391
434.41	-5.425
434.76	-5.438
435.11	-5.389
435.45	-5.309
435.80	-5.160
436.15	-5.028
436.50	-4.897
436.85	-4.756
437.20	-4.629
437.54	-4.525
437.89	-4.466
438.24	-4.426
438.59	-4.414
438.94	-4.474
439.29	-4.569
439.63	-4.689
439.98	-4.778
440.33	-4.841
440.68	-4.911
441.03	-4.918
441.37	-4.876
441.72	-4.790
442.07	-4.662
442.42	-4.504
442.76	-4.317
443.11	-4.130
443.46	-3.967
443.81	-3.827
444.16	-3.728
444.50	-3.686
444.85	-3.674
445.20	-3.727
445.55	-3.837
445.89	-4.000
446.24	-4.204
446.59	-4.440
446.94	-4.682
447.28	-4.944
447.63	-5.201
447.98	-5.471
448.32	-5.687
448.67	-5.894
449.02	-5.994
449.37	-6.077
449.71	-6.082
450.06	-6.051
450.41	-5.998
450.75	-5.975
451.10	-5.928
451.45	-5.924
451.79	-5.911
452.14	-5.910
452.49	-5.937
452.84	-5.976
453.18	-5.981
453.53	-5.988
453.88	-5.990
454.22	-5.930
454.57	-5.777
454.92	-5.583
455.26	-5.348
455.61	-5.123
455.95	-4.887
456.30	-4.663
456.65	-4.441
456.99	-4.254
457.34	-4.096
457.69	-3.982
458.03	-3.926
458.38	-3.934
458.73	-4.010
459.07	-4.151
459.42	-4.322
459.76	-4.524
460.11	-4.755
460.46	-5.006
460.80	-5.310
461.15	-5.605
461.49	-5.847
461.84	-6.071
462.19	-6.263
462.53	-6.355
462.88	-6.382
463.22	-6.352
463.57	-6.304
463.91	-6.254
464.26	-6.199
464.61	-6.072
464.95	-6.005
465.30	-5.954
465.64	-5.924
465.99	-5.953
466.33	-5.984
466.68	-6.064
467.02	-6.141
467.37	-6.246
467.71	-6.321
468.06	-6.438
468.41	-6.565
468.75	-6.684
469.10	-6.841
469.44	-7.022
469.79	-7.111
470.13	-7.222
470.48	-7.323
470.82	-7.432
471.17	-7.506
471.51	-7.601
471.86	-7.670
472.20	-7.781
472.55	-7.860
472.89	-7.898
473.23	-7.903
473.58	-7.948
473.92	-7.956
474.27	-7.930
474.61	-7.935
474.96	-7.929
475.30	-7.935
475.65	-7.920
475.99	-7.858
476.34	-7.819
476.68	-7.763
477.02	-7.684
477.37	-7.559
477.71	-7.398
478.06	-7.099
478.40	-6.583
478.75	-5.919
479.09	-5.244
479.43	-4.617
479.78	-4.077
480.12	-3.589
480.47	-3.178
480.81	-2.815
481.15	-2.485
481.50	-2.203
481.84	-1.982
482.19	-1.823
482.53	-1.731
482.87	-1.669
483.22	-1.657
483.56	-1.650
483.90	-1.699
484.25	-1.756
484.59	-1.848
484.94	-1.962
485.28	-2.089
485.62	-2.230
485.97	-2.382
486.31	-2.525
486.65	-2.683
487.00	-2.829
487.34	-3.003
487.68	-3.136
488.03	-3.263
488.37	-3.370
488.71	-3.466
489.06	-3.554
489.40	-3.645
489.74	-3.748
490.09	-3.882
490.43	-4.034
490.77	-4.241
491.11	-4.474
491.46	-4.722
491.80	-5.010
492.14	-5.275
492.49	-5.575
492.83	-5.887
493.17	-6.192
493.51	-6.474
493.86	-6.719
494.20	-6.903
494.54	-6.975
494.88	-6.965
495.23	-6.917
495.57	-6.845
495.91	-6.817
496.25	-6.799
496.60	-6.783
496.94	-6.806
497.28	-6.838
497.62	-6.904
497.97	-6.975
498.31	-7.065
498.65	-7.159
498.99	-7.271
499.33	-7.352
499.68	-7.390
500.02	-7.426
500.36	-7.466
500.70	-7.481
501.04	-7.496
501.39	-7.469
501.73	-7.464
502.07	-7.435
502.41	-7.383
502.75	-7.340
503.09	-7.281
503.44	-7.219
503.78	-7.149
504.12	-7.072
504.46	-6.958
504.80	-6.850
505.14	-6.759
505.49	-6.629
505.83	-6.533
506.17	-6.461
506.51	-6.357
506.85	-6.293
507.19	-6.258
507.53	-6.195
507.87	-6.150
508.22	-6.145
508.56	-6.158
508.90	-6.177
509.24	-6.223
509.58	-6.246
509.92	-6.262
510.26	-6.321
510.60	-6.372
510.94	-6.425
511.28	-6.486
511.63	-6.545
511.97	-6.576
512.31	-6.568
512.65	-6.534
512.99	-6.448
513.33	-6.340
513.67	-6.187
514.01	-6.007
514.35	-5.787
514.69	-5.538
515.03	-5.303
515.37	-5.096
515.71	-4.903
516.05	-4.757
516.39	-4.645
516.73	-4.588
517.07	-4.560
517.41	-4.611
517.75	-4.692
518.09	-4.833
518.43	-5.029
518.77	-5.245
519.11	-5.458
519.45	-5.684
519.79	-5.893
520.13	-6.077
520.47	-6.193
520.81	-6.251
521.15	-6.218
521.49	-6.153
521.83	-6.013
522.17	-5.818
522.51	-5.587
522.85	-5.280
523.19	-4.869
523.53	-4.401
523.87	-3.914
524.21	-3.476
524.55	-3.113
524.89	-2.801
525.23	-2.520
525.57	-2.288
525.91	-2.079
526.25	-1.907
526.58	-1.780
526.92	-1.717
527.26	-1.686
527.60	-1.731
527.94	-1.812
528.28	-1.905
528.62	-2.018
528.96	-2.136
529.30	-2.262
529.64	-2.405
529.97	-2.556
530.31	-2.720
530.65	-2.877
530.99	-3.027
531.33	-3.127
531.67	-3.197
532.01	-3.244
532.35	-3.333
532.68	-3.430
533.02	-3.557
533.36	-3.704
533.70	-3.853
534.04	-3.987
534.38	-4.138
534.71	-4.293
535.05	-4.446
535.39	-4.600
535.73	-4.741
536.07	-4.767
536.41	-4.709
536.74	-4.571
537.08	-4.385
537.42	-4.184
537.76	-3.968
538.10	-3.728
538.43	-3.515
538.77	-3.307
539.11	-3.132
539.45	-2.988
539.79	-2.879
540.12	-2.834
540.46	-2.838
540.80	-2.892
541.14	-2.980
541.47	-3.109
541.81	-3.269
542.15	-3.435
542.49	-3.658
542.82	-3.881
543.16	-4.117
543.50	-4.364
543.84	-4.611
544.17	-4.811
544.51	-4.980
544.85	-5.115
545.18	-5.258
545.52	-5.433
545.86	-5.633
546.20	-5.845
546.53	-6.061
546.87	-6.277
547.21	-6.513
547.54	-6.727
547.88	-6.933
548.22	-7.095
548.55	-7.228
548.89	-7.323
549.23	-7.390
549.56	-7.396
549.90	-7.336
550.24	-7.305
550.57	-7.272
550.91	-7.225
551.25	-7.175
551.58	-7.147
551.92	-7.187
552.26	-7.235
552.59	-7.319
552.93	-7.371
553.27	-7.469
553.60	-7.551
553.94	-7.618
554.27	-7.665
554.61	-7.725
554.95	-7.770
555.28	-7.849
555.62	-7.813
555.95	-7.811
556.29	-7.745
556.63	-7.674
556.96	-7.624
557.30	-7.569
557.63	-7.513
557.97	-7.464
558.31	-7.371
558.64	-7.308
558.98	-7.243
559.31	-7.258
559.65	-7.200
559.98	-7.153
560.32	-7.116
560.65	-7.039
560.99	-6.954
561.33	-6.809
561.66	-6.685
562.00	-6.568
562.33	-6.461
562.67	-6.281
563.00	-6.069
563.34	-5.902
563.67	-5.747
564.01	-5.594
564.34	-5.466
564.68	-5.359
565.01	-5.314
565.35	-5.270
565.68	-5.228
566.02	-5.161
566.35	-5.139
566.69	-5.127
567.02	-5.078
567.36	-5.018
567.69	-4.936
568.03	-4.858
568.36	-4.752
568.69	-4.645
569.03	-4.523
569.36	-4.395
569.70	-4.269
570.03	-4.139
570.37	-3.998
570.70	-3.925
571.04	-3.850
571.37	-3.819
571.70	-3.783
572.04	-3.750
572.37	-3.704
572.71	-3.688
573.04	-3.664
573.37	-3.675
573.71	-3.699
574.04	-3.742
574.38	-3.761
574.71	-3.819
575.04	-3.863
575.38	-3.884
575.71	-3.938
576.05	-4.020
576.38	-4.058
576.71	-4.147
577.05	-4.226
577.38	-4.260
577.71	-4.296
578.05	-4.329
578.38	-4.337
578.71	-4.310
579.05	-4.301
579.38	-4.266
579.71	-4.196
580.05	-4.141
580.38	-4.071
580.71	-3.944
581.05	-3.856
581.38	-3.771
581.71	-3.672
582.05	-3.542
582.38	-3.400
582.71	-3.282
583.04	-3.165
583.38	-3.010
583.71	-2.810
584.04	-2.590
584.38	-2.407
584.71	-2.181
585.04	-1.931
585.37	-1.687
585.71	-1.398
586.04	-1.175
586.37	-0.882
586.70	-0.601
587.04	-0.349
587.37	-0.181
587.70	-0.003
588.03	0.150
588.37	0.303
588.70	0.450
589.03	0.538
589.36	0.617
589.69	0.735
590.03	0.811
590.36	0.860
590.69	0.960
591.02	1.105
591.35	1.235
591.69	1.463
592.02	1.695
592.35	1.914
592.68	2.229
593.01	2.519
593.35	2.766
593.68	3.026
594.01	3.288
594.34	3.486
594.67	3.673
595.00	3.887
595.34	4.033
595.67	4.154
596.00	4.249
596.33	4.289
596.66	4.313
596.99	4.334
597.32	4.327
597.65	4.374
597.99	4.394
598.32	4.481
598.65	4.566
598.98	4.684
599.31	4.867
599.64	5.080
599.97	5.323
600.30	5.586
600.63	5.845
600.96	6.118
601.30	6.356
601.63	6.621
601.96	6.817
602.29	6.998
602.62	7.138
602.95	7.248
603.28	7.346
603.61	7.414
603.94	7.445
604.27	7.486
604.60	7.512
604.93	7.548
605.26	7.568
605.59	7.626
605.92	7.631
606.25	7.704
606.58	7.740
606.91	7.840
607.24	7.915
607.57	8.009
607.90	8.048
608.23	8.086
608.56	8.100
608.89	8.115
609.22	8.085
609.55	8.079
609.88	8.003
610.21	7.932
610.54	7.804
610.87	7.718
611.20	7.618
611.53	7.572
611.86	7.486
612.19	7.445
612.52	7.412
612.85	7.436
613.18	7.428
613.51	7.434
613.84	7.473
614.17	7.517
614.49	7.503
614.82	7.531
615.15	7.515
615.48	7.531
615.81	7.524
616.14	7.483
616.47	7.432
616.80	7.412
617.13	7.416
617.46	7.425
617.78	7.380
618.11	7.362
618.44	7.316
618.77	7.331
619.10	7.326
619.43	7.317
619.76	7.322
620.09	7.317
620.41	7.322
620.74	7.395
621.07	7.374
621.40	7.489
621.73	7.591
622.06	7.702
622.38	7.826
622.71	7.982
623.04	8.122
623.37	8.297
623.70	8.436
624.02	8.556
624.35	8.633
624.68	8.764
625.01	8.824
625.34	8.892
625.66	8.928
625.99	8.975
626.32	8.960
626.65	8.955
626.98	8.944
627.30	8.929
627.63	8.894
627.96	8.889
628.29	8.863
628.61	8.872
628.94	8.842
629.27	8.810
629.60	8.774
629.92	8.820
630.25	8.795
630.58	8.784
630.91	8.734
631.23	8.752
631.56	8.699
631.89	8.643
632.21	8.560
632.54	8.508
632.87	8.492
633.19	8.404
633.52	8.294
633.85	8.207
634.18	8.077
634.50	7.994
634.83	7.854
635.16	7.691
635.48	7.597
635.81	7.454
636.14	7.301
636.46	7.099
636.79	6.962
637.11	6.733
637.44	6.567
637.77	6.382
638.09	6.185
638.42	6.071
638.75	5.881
639.07	5.637
