OOIBase32 Version 2.0.0.6 Data File
++++++++++++++++++++++++++++++++++++
Date: 01-24-2012, 17:43:59
User: Valued Ocean Optics Customer
Spectrometer Serial Number: USB2E2917
Spectrometer Channel: Master
Integration Time (msec): 7
Spectra Averaged: 10
Boxcar Smoothing: 5
Correct for Electrical Dark: Enabled
Time Normalized: Disabled
Dual-beam Reference: Disabled
Reference Channel: Master
Temperature: Not acquired
Spectrometer Type: S2000
ADC Type: USB2000
Number of Pixels in File: 2048
Graph Title: 
>>>>>Begin Spectral Data<<<<<
180.30	0.000
180.67	0.000
181.03	-54.115
181.40	-222385.714
181.77	-1299.847
182.14	56.396
182.51	-5.194
182.88	112.552
183.25	110.557
183.62	-4.191
183.99	74.094
184.36	-45.827
184.73	-15.000
185.10	171.531
185.46	66.695
185.83	-455.541
186.20	-70.096
186.57	126.712
186.94	48.554
187.31	88.994
187.68	-126.551
188.05	77.630
188.42	-4.070
188.78	-43.477
189.15	-25.268
189.52	10.509
189.89	-14.818
190.26	-7.320
190.63	6.320
191.00	12.084
191.37	10.232
191.73	18.457
192.10	4.381
192.47	43.929
192.84	58.802
193.21	93.357
193.58	80.317
193.94	86.263
194.31	56.507
194.68	43.513
195.05	34.343
195.42	27.125
195.79	36.180
196.15	39.337
196.52	19.876
196.89	24.199
197.26	23.709
197.63	21.644
198.00	32.653
198.36	26.860
198.73	28.497
199.10	29.640
199.47	35.123
199.84	30.752
200.20	18.458
200.57	0.947
200.94	-23.760
201.31	1.408
201.68	7.544
202.04	7.007
202.41	20.850
202.78	21.793
203.15	27.306
203.51	28.400
203.88	31.384
204.25	35.048
204.62	48.130
204.98	64.092
205.35	53.800
205.72	28.608
206.09	31.690
206.46	32.325
206.82	16.670
207.19	7.655
207.56	-1.118
207.92	4.753
208.29	7.006
208.66	-3.106
209.03	-4.358
209.39	-7.648
209.76	-5.641
210.13	-11.145
210.50	-16.790
210.86	4.845
211.23	9.283
211.60	12.756
211.96	3.857
212.33	-1.308
212.70	-4.795
213.07	-2.472
213.43	0.537
213.80	7.589
214.17	5.319
214.53	6.671
214.90	-6.127
215.27	-13.514
215.63	-28.296
216.00	-35.880
216.37	-26.879
216.74	-9.284
217.10	-23.041
217.47	-20.272
217.84	-39.428
218.20	-38.930
218.57	-52.487
218.94	-25.257
219.30	-17.260
219.67	-7.319
220.04	1.600
220.40	-2.190
220.77	-7.057
221.13	-7.158
221.50	-12.215
221.87	-5.186
222.23	-12.393
222.60	-1.310
222.97	-9.884
223.33	-4.670
223.70	-7.324
224.07	-2.021
224.43	1.138
224.80	-2.435
225.16	1.589
225.53	4.249
225.90	0.350
226.26	3.949
226.63	1.185
226.99	2.212
227.36	0.367
227.73	1.287
228.09	-1.987
228.46	-3.249
228.82	1.448
229.19	-1.494
229.56	-3.070
229.92	-0.979
230.29	-1.089
230.65	2.881
231.02	2.613
231.38	2.874
231.75	3.677
232.12	4.773
232.48	5.105
232.85	2.508
233.21	4.955
233.58	7.327
233.94	5.701
234.31	4.606
234.68	2.473
235.04	5.055
235.41	5.602
235.77	4.778
236.14	6.194
236.50	8.377
236.87	7.270
237.23	7.105
237.60	4.406
237.96	5.357
238.33	5.337
238.69	5.379
239.06	4.747
239.42	4.948
239.79	5.575
240.15	5.436
240.52	4.702
240.88	4.977
241.25	5.488
241.61	6.421
241.98	5.769
242.34	6.058
242.71	5.997
243.07	5.689
243.44	5.598
243.80	5.381
244.17	5.174
244.53	4.744
244.90	4.051
245.26	3.908
245.63	3.915
245.99	4.384
246.36	4.345
246.72	4.394
247.09	4.430
247.45	3.967
247.81	3.739
248.18	3.959
248.54	4.160
248.91	4.566
249.27	4.743
249.64	4.211
250.00	3.538
250.36	3.666
250.73	3.712
251.09	3.268
251.46	4.017
251.82	4.772
252.19	4.260
252.55	4.473
252.91	4.830
253.28	5.109
253.64	6.287
254.01	6.174
254.37	5.603
254.73	5.736
255.10	6.342
255.46	6.130
255.83	5.563
256.19	5.549
256.55	5.156
256.92	4.882
257.28	4.665
257.65	4.257
258.01	4.516
258.37	4.680
258.74	4.502
259.10	4.511
259.46	4.427
259.83	4.716
260.19	4.735
260.55	5.087
260.92	5.109
261.28	5.125
261.64	5.333
262.01	5.510
262.37	5.549
262.73	5.660
263.10	5.053
263.46	4.998
263.82	4.771
264.19	5.298
264.55	5.253
264.91	5.864
265.28	5.975
265.64	5.853
266.00	5.213
266.37	5.330
266.73	5.598
267.09	5.965
267.46	6.226
267.82	6.159
268.18	5.929
268.54	5.394
268.91	4.796
269.27	4.849
269.63	5.063
270.00	5.564
270.36	5.448
270.72	4.783
271.08	4.692
271.45	4.371
271.81	4.064
272.17	3.618
272.53	4.050
272.90	4.431
273.26	4.204
273.62	4.087
273.98	3.702
274.35	3.412
274.71	3.678
275.07	3.719
275.43	3.722
275.80	3.856
276.16	3.774
276.52	3.642
276.88	3.579
277.25	3.505
277.61	3.457
277.97	3.573
278.33	3.872
278.69	4.025
279.06	3.848
279.42	4.050
279.78	3.843
280.14	4.073
280.50	3.864
280.87	4.013
281.23	4.166
281.59	4.121
281.95	4.114
282.31	4.197
282.68	4.163
283.04	4.266
283.40	4.072
283.76	4.186
284.12	4.458
284.48	4.572
284.85	4.261
285.21	4.002
285.57	3.960
285.93	3.922
286.29	3.703
286.65	3.676
287.02	3.538
287.38	3.709
287.74	3.767
288.10	3.589
288.46	3.611
288.82	3.900
289.18	4.075
289.54	4.192
289.91	4.204
290.27	4.237
290.63	4.114
290.99	4.372
291.35	4.325
291.71	4.204
292.07	4.319
292.43	4.232
292.79	4.246
293.16	4.161
293.52	4.066
293.88	4.279
294.24	4.139
294.60	4.218
294.96	3.855
295.32	3.920
295.68	3.904
296.04	3.664
296.40	3.673
296.76	3.354
297.12	3.159
297.49	3.067
297.85	2.863
298.21	2.827
298.57	2.652
298.93	2.886
299.29	2.686
299.65	2.696
300.01	2.803
300.37	2.913
300.73	3.149
301.09	3.394
301.45	3.390
301.81	3.333
302.17	3.399
302.53	3.443
302.89	3.316
303.25	3.434
303.61	3.506
303.97	3.301
304.33	2.943
304.69	2.769
305.05	2.493
305.41	2.446
305.77	2.512
306.13	2.560
306.49	2.409
306.85	2.452
307.21	2.387
307.57	2.149
307.93	2.293
308.29	2.484
308.65	2.367
309.01	2.406
309.37	2.416
309.73	2.193
310.09	1.995
310.45	2.052
310.81	1.925
311.17	1.913
311.53	1.903
311.89	1.805
312.25	1.745
312.61	1.682
312.96	1.684
313.32	1.676
313.68	1.613
314.04	1.723
314.40	1.473
314.76	1.511
315.12	1.404
315.48	1.413
315.84	1.235
316.20	1.091
316.56	1.051
316.92	1.143
317.27	0.901
317.63	1.067
317.99	0.989
318.35	1.143
318.71	1.038
319.07	0.830
319.43	0.757
319.79	0.749
320.15	0.466
320.50	0.541
320.86	0.347
321.22	0.276
321.58	0.202
321.94	0.263
322.30	0.197
322.66	0.193
323.01	0.205
323.37	0.174
323.73	0.053
324.09	0.284
324.45	0.013
324.81	-0.067
325.17	-0.099
325.52	-0.230
325.88	-0.602
326.24	-0.775
326.60	-1.033
326.96	-1.023
327.31	-1.040
327.67	-0.970
328.03	-1.197
328.39	-1.198
328.75	-1.352
329.11	-1.389
329.46	-1.530
329.82	-1.323
330.18	-1.171
330.54	-1.127
330.90	-1.143
331.25	-1.083
331.61	-1.092
331.97	-1.076
332.33	-0.915
332.68	-0.722
333.04	-0.658
333.40	-0.490
333.76	-0.474
334.11	-0.632
334.47	-0.603
334.83	-0.678
335.19	-0.749
335.54	-0.710
335.90	-0.556
336.26	-0.624
336.62	-0.752
336.97	-0.917
337.33	-0.907
337.69	-1.000
338.05	-0.813
338.40	-0.745
338.76	-0.763
339.12	-0.891
339.48	-0.906
339.83	-0.953
340.19	-0.908
340.55	-0.912
340.90	-0.865
341.26	-0.910
341.62	-0.968
341.97	-1.134
342.33	-1.155
342.69	-1.114
343.04	-1.048
343.40	-1.046
343.76	-1.029
344.12	-1.119
344.47	-1.090
344.83	-1.077
345.19	-1.110
345.54	-1.076
345.90	-1.150
346.26	-1.289
346.61	-1.325
346.97	-1.376
347.32	-1.572
347.68	-1.765
348.04	-1.994
348.39	-2.020
348.75	-2.083
349.11	-2.312
349.46	-2.421
349.82	-2.355
350.18	-2.268
350.53	-2.347
350.89	-2.460
351.24	-2.333
351.60	-2.396
351.96	-2.242
352.31	-2.298
352.67	-2.236
353.02	-2.117
353.38	-2.017
353.74	-2.009
354.09	-1.962
354.45	-1.951
354.80	-1.852
355.16	-1.918
355.52	-1.689
355.87	-1.582
356.23	-1.506
356.58	-1.457
356.94	-1.458
357.29	-1.480
357.65	-1.439
358.00	-1.533
358.36	-1.524
358.72	-1.572
359.07	-1.570
359.43	-1.676
359.78	-1.708
360.14	-1.802
360.49	-1.903
360.85	-1.921
361.20	-2.018
361.56	-2.197
361.91	-2.211
362.27	-2.304
362.62	-2.303
362.98	-2.465
363.33	-2.499
363.69	-2.656
364.04	-2.761
364.40	-2.894
364.75	-2.955
365.11	-2.998
365.46	-2.950
365.82	-3.062
366.17	-3.158
366.53	-3.230
366.88	-3.157
367.24	-3.159
367.59	-3.096
367.95	-3.001
368.30	-2.893
368.66	-2.862
369.01	-2.782
369.37	-2.695
369.72	-2.644
370.08	-2.448
370.43	-2.349
370.78	-2.281
371.14	-2.210
371.49	-2.191
371.85	-2.170
372.20	-2.206
372.56	-2.278
372.91	-2.350
373.26	-2.451
373.62	-2.547
373.97	-2.665
374.33	-2.742
374.68	-2.877
375.03	-3.008
375.39	-3.092
375.74	-3.194
376.10	-3.180
376.45	-3.056
376.80	-3.042
377.16	-2.925
377.51	-2.749
377.87	-2.676
378.22	-2.604
378.57	-2.465
378.93	-2.391
379.28	-2.243
379.63	-2.052
379.99	-1.905
380.34	-1.826
380.70	-1.654
381.05	-1.556
381.40	-1.478
381.76	-1.478
382.11	-1.461
382.46	-1.436
382.82	-1.389
383.17	-1.403
383.52	-1.461
383.88	-1.544
384.23	-1.660
384.58	-1.761
384.94	-1.917
385.29	-2.038
385.64	-2.070
385.99	-2.105
386.35	-2.191
386.70	-2.266
387.05	-2.336
387.41	-2.346
387.76	-2.334
388.11	-2.293
388.47	-2.257
388.82	-2.213
389.17	-2.128
389.52	-2.051
389.88	-1.999
390.23	-1.906
390.58	-1.762
390.93	-1.606
391.29	-1.513
391.64	-1.454
391.99	-1.402
392.34	-1.384
392.70	-1.395
393.05	-1.421
393.40	-1.490
393.75	-1.542
394.11	-1.648
394.46	-1.828
394.81	-2.044
395.16	-2.213
395.52	-2.407
395.87	-2.653
396.22	-2.937
396.57	-3.163
396.92	-3.486
397.28	-3.670
397.63	-3.940
397.98	-4.133
398.33	-4.337
398.68	-4.475
399.04	-4.598
399.39	-4.682
399.74	-4.651
400.09	-4.594
400.44	-4.525
400.80	-4.373
401.15	-4.331
401.50	-4.187
401.85	-4.056
402.20	-3.890
402.55	-3.814
402.90	-3.763
403.26	-3.708
403.61	-3.679
403.96	-3.678
404.31	-3.694
404.66	-3.731
405.01	-3.731
405.36	-3.790
405.72	-3.892
406.07	-3.955
406.42	-3.988
406.77	-4.036
407.12	-4.045
407.47	-4.109
407.82	-4.080
408.17	-4.143
408.53	-4.164
408.88	-4.203
409.23	-4.234
409.58	-4.235
409.93	-4.272
410.28	-4.313
410.63	-4.335
410.98	-4.345
411.33	-4.294
411.68	-4.265
412.03	-4.172
412.38	-4.045
412.73	-3.856
413.09	-3.667
413.44	-3.463
413.79	-3.229
414.14	-2.903
414.49	-2.613
414.84	-2.329
415.19	-2.051
415.54	-1.771
415.89	-1.487
416.24	-1.242
416.59	-1.002
416.94	-0.762
417.29	-0.544
417.64	-0.372
417.99	-0.258
418.34	-0.134
418.69	-0.039
419.04	0.046
419.39	0.114
419.74	0.197
420.09	0.263
420.44	0.284
420.79	0.278
421.14	0.263
421.49	0.258
421.84	0.242
422.19	0.186
422.54	0.140
422.89	0.062
423.24	-0.060
423.59	-0.198
423.94	-0.393
424.29	-0.570
424.64	-0.746
424.99	-0.923
425.34	-1.112
425.68	-1.298
426.03	-1.454
426.38	-1.632
426.73	-1.772
427.08	-1.817
427.43	-1.840
427.78	-1.775
428.13	-1.732
428.48	-1.660
428.83	-1.621
429.18	-1.550
429.53	-1.486
429.87	-1.437
430.22	-1.394
430.57	-1.362
430.92	-1.372
431.27	-1.440
431.62	-1.500
431.97	-1.578
432.32	-1.689
432.67	-1.770
433.01	-1.882
433.36	-2.032
433.71	-2.146
434.06	-2.213
434.41	-2.252
434.76	-2.238
435.11	-2.178
435.45	-2.108
435.80	-1.989
436.15	-1.883
436.50	-1.770
436.85	-1.661
437.20	-1.541
437.54	-1.464
437.89	-1.433
438.24	-1.404
438.59	-1.435
438.94	-1.475
439.29	-1.557
439.63	-1.668
439.98	-1.736
440.33	-1.784
440.68	-1.832
441.03	-1.805
441.37	-1.755
441.72	-1.642
442.07	-1.519
442.42	-1.354
442.76	-1.171
443.11	-0.990
443.46	-0.837
443.81	-0.703
444.16	-0.606
444.50	-0.559
444.85	-0.549
445.20	-0.589
445.55	-0.711
445.89	-0.851
446.24	-1.044
446.59	-1.282
446.94	-1.502
447.28	-1.734
447.63	-1.978
447.98	-2.222
448.32	-2.416
448.67	-2.612
449.02	-2.722
449.37	-2.774
449.71	-2.780
450.06	-2.720
450.41	-2.665
450.75	-2.648
451.10	-2.599
451.45	-2.582
451.79	-2.575
452.14	-2.552
452.49	-2.567
452.84	-2.567
453.18	-2.583
453.53	-2.588
453.88	-2.607
454.22	-2.522
454.57	-2.359
454.92	-2.177
455.26	-1.952
455.61	-1.724
455.95	-1.497
456.30	-1.258
456.65	-1.052
456.99	-0.853
457.34	-0.693
457.69	-0.563
458.03	-0.493
458.38	-0.497
458.73	-0.557
459.07	-0.684
459.42	-0.832
459.76	-1.033
460.11	-1.262
460.46	-1.487
460.80	-1.777
461.15	-2.066
461.49	-2.292
461.84	-2.507
462.19	-2.671
462.53	-2.755
462.88	-2.774
463.22	-2.762
463.57	-2.700
463.91	-2.664
464.26	-2.610
464.61	-2.502
464.95	-2.408
465.30	-2.351
465.64	-2.328
465.99	-2.360
466.33	-2.397
466.68	-2.462
467.02	-2.534
467.37	-2.642
467.71	-2.704
468.06	-2.797
468.41	-2.900
468.75	-3.023
469.10	-3.191
469.44	-3.357
469.79	-3.452
470.13	-3.562
470.48	-3.661
470.82	-3.757
471.17	-3.828
471.51	-3.918
471.86	-4.007
472.20	-4.120
472.55	-4.191
472.89	-4.207
473.23	-4.220
473.58	-4.245
473.92	-4.228
474.27	-4.205
474.61	-4.202
474.96	-4.193
475.30	-4.188
475.65	-4.145
475.99	-4.065
476.34	-4.038
476.68	-3.977
477.02	-3.882
477.37	-3.762
477.71	-3.592
478.06	-3.315
478.40	-2.825
478.75	-2.143
479.09	-1.465
479.43	-0.835
479.78	-0.272
480.12	0.247
480.47	0.670
480.81	1.058
481.15	1.411
481.50	1.712
481.84	1.980
482.19	2.196
482.53	2.313
482.87	2.384
483.22	2.375
483.56	2.324
483.90	2.232
484.25	2.147
484.59	2.040
484.94	1.906
485.28	1.766
485.62	1.580
485.97	1.390
486.31	1.233
486.65	1.078
487.00	0.970
487.34	0.873
487.68	0.803
488.03	0.718
488.37	0.628
488.71	0.561
489.06	0.482
489.40	0.425
489.74	0.346
490.09	0.221
490.43	0.078
490.77	-0.109
491.11	-0.321
491.46	-0.556
491.80	-0.808
492.14	-1.051
492.49	-1.317
492.83	-1.589
493.17	-1.831
493.51	-2.065
493.86	-2.256
494.20	-2.385
494.54	-2.408
494.88	-2.361
495.23	-2.275
495.57	-2.165
495.91	-2.091
496.25	-2.035
496.60	-1.975
496.94	-1.960
497.28	-1.963
497.62	-1.972
497.97	-2.000
498.31	-2.036
498.65	-2.071
498.99	-2.096
499.33	-2.116
499.68	-2.099
500.02	-2.052
500.36	-2.016
500.70	-1.972
501.04	-1.913
501.39	-1.842
501.73	-1.738
502.07	-1.628
502.41	-1.499
502.75	-1.395
503.09	-1.262
503.44	-1.115
503.78	-0.986
504.12	-0.845
504.46	-0.650
504.80	-0.487
505.14	-0.308
505.49	-0.114
505.83	0.050
506.17	0.210
506.51	0.371
506.85	0.512
507.19	0.629
507.53	0.754
507.87	0.888
508.22	0.963
508.56	1.039
508.90	1.113
509.24	1.156
509.58	1.204
509.92	1.271
510.26	1.328
510.60	1.367
510.94	1.391
511.28	1.429
511.63	1.481
511.97	1.545
512.31	1.652
512.65	1.779
512.99	1.953
513.33	2.159
513.67	2.384
514.01	2.639
514.35	2.936
514.69	3.247
515.03	3.547
515.37	3.809
515.71	4.052
516.05	4.269
516.39	4.441
516.73	4.564
517.07	4.662
517.41	4.700
517.75	4.693
518.09	4.638
518.43	4.547
518.77	4.434
519.11	4.327
519.45	4.217
519.79	4.097
520.13	4.018
520.47	3.989
520.81	4.023
521.15	4.113
521.49	4.256
521.83	4.443
522.17	4.667
522.51	4.951
522.85	5.280
523.19	5.717
523.53	6.222
523.87	6.752
524.21	7.229
524.55	7.657
524.89	8.018
525.23	8.351
525.57	8.626
525.91	8.884
526.25	9.092
526.58	9.268
526.92	9.378
527.26	9.451
527.60	9.429
527.94	9.391
528.28	9.323
528.62	9.250
528.96	9.150
529.30	9.054
529.64	8.949
529.97	8.823
530.31	8.685
530.65	8.558
530.99	8.449
531.33	8.402
531.67	8.378
532.01	8.356
532.35	8.311
532.68	8.265
533.02	8.197
533.36	8.099
533.70	8.006
534.04	7.934
534.38	7.849
534.71	7.753
535.05	7.644
535.39	7.536
535.73	7.462
536.07	7.468
536.41	7.561
536.74	7.719
537.08	7.926
537.42	8.155
537.76	8.370
538.10	8.632
538.43	8.852
538.77	9.102
539.11	9.304
539.45	9.484
539.79	9.616
540.12	9.704
540.46	9.745
540.80	9.734
541.14	9.707
541.47	9.661
541.81	9.568
542.15	9.479
542.49	9.322
542.82	9.178
543.16	9.021
543.50	8.870
543.84	8.691
544.17	8.569
544.51	8.487
544.85	8.421
545.18	8.334
545.52	8.240
545.86	8.134
546.20	8.031
546.53	7.913
546.87	7.801
547.21	7.681
547.54	7.615
547.88	7.548
548.22	7.525
548.55	7.498
548.89	7.504
549.23	7.545
549.56	7.613
549.90	7.728
550.24	7.835
550.57	7.942
550.91	8.064
551.25	8.185
551.58	8.259
551.92	8.286
552.26	8.334
552.59	8.375
552.93	8.389
553.27	8.428
553.60	8.477
553.94	8.514
554.27	8.561
554.61	8.599
554.95	8.662
555.28	8.740
555.62	8.865
555.95	8.955
556.29	9.080
556.63	9.236
556.96	9.345
557.30	9.456
557.63	9.581
557.97	9.707
558.31	9.870
558.64	9.988
558.98	10.086
559.31	10.156
559.65	10.252
559.98	10.392
560.32	10.511
560.65	10.684
560.99	10.838
561.33	11.035
561.66	11.200
562.00	11.369
562.33	11.539
562.67	11.729
563.00	11.964
563.34	12.179
563.67	12.336
564.01	12.502
564.34	12.642
564.68	12.795
565.01	12.903
565.35	13.017
565.68	13.117
566.02	13.218
566.35	13.341
566.69	13.407
567.02	13.497
567.36	13.598
567.69	13.739
568.03	13.831
568.36	13.927
568.69	14.013
569.03	14.136
569.36	14.274
569.70	14.397
570.03	14.503
570.37	14.640
570.70	14.721
571.04	14.836
571.37	14.900
571.70	14.990
572.04	15.064
572.37	15.133
572.71	15.149
573.04	15.207
573.37	15.259
573.71	15.285
574.04	15.269
574.38	15.328
574.71	15.293
575.04	15.256
575.38	15.249
575.71	15.239
576.05	15.257
576.38	15.270
576.71	15.202
577.05	15.137
577.38	15.130
577.71	15.112
578.05	15.066
578.38	15.072
578.71	15.116
579.05	15.124
579.38	15.151
579.71	15.164
580.05	15.208
580.38	15.243
580.71	15.317
581.05	15.357
581.38	15.435
581.71	15.507
582.05	15.549
582.38	15.602
582.71	15.656
583.04	15.722
583.38	15.828
583.71	15.894
584.04	16.013
584.38	16.095
584.71	16.212
585.04	16.348
585.37	16.463
585.71	16.682
586.04	16.868
586.37	17.058
586.70	17.207
587.04	17.324
587.37	17.438
587.70	17.537
588.03	17.638
588.37	17.729
588.70	17.791
589.03	17.826
589.36	17.787
589.69	17.792
590.03	17.751
590.36	17.721
590.69	17.733
591.02	17.743
591.35	17.753
591.69	17.820
592.02	17.884
592.35	17.965
592.68	18.061
593.01	18.184
593.35	18.274
593.68	18.413
594.01	18.513
594.34	18.601
594.67	18.706
595.00	18.813
595.34	18.852
595.67	18.868
596.00	18.849
596.33	18.845
596.66	18.812
596.99	18.739
597.32	18.639
597.65	18.612
597.99	18.527
598.32	18.477
598.65	18.388
598.98	18.331
599.31	18.308
599.64	18.355
599.97	18.376
600.30	18.446
600.63	18.484
600.96	18.610
601.30	18.653
601.63	18.718
601.96	18.734
602.29	18.778
602.62	18.819
602.95	18.853
603.28	18.828
603.61	18.817
603.94	18.733
604.27	18.692
604.60	18.569
604.93	18.521
605.26	18.439
605.59	18.409
605.92	18.338
606.25	18.289
606.58	18.166
606.91	18.135
607.24	18.098
607.57	18.093
607.90	18.026
608.23	17.967
608.56	17.846
608.89	17.754
609.22	17.603
609.55	17.417
609.88	17.236
610.21	17.122
610.54	16.902
610.87	16.684
611.20	16.495
611.53	16.317
611.86	16.156
612.19	16.025
612.52	15.868
612.85	15.766
613.18	15.704
613.51	15.603
613.84	15.503
614.17	15.442
614.49	15.398
614.82	15.308
615.15	15.251
615.48	15.177
615.81	15.103
616.14	15.019
616.47	14.984
616.80	14.963
617.13	14.945
617.46	14.864
617.78	14.783
618.11	14.646
618.44	14.572
618.77	14.512
619.10	14.442
619.43	14.346
619.76	14.293
620.09	14.186
620.41	14.099
620.74	14.048
621.07	14.009
621.40	14.004
621.73	14.071
622.06	14.107
622.38	14.177
622.71	14.239
623.04	14.389
623.37	14.504
623.70	14.604
624.02	14.700
624.35	14.775
624.68	14.884
625.01	14.967
625.34	15.032
625.66	15.037
625.99	15.052
626.32	15.066
626.65	15.016
626.98	15.021
627.30	14.991
627.63	14.918
627.96	14.854
628.29	14.759
628.61	14.694
628.94	14.605
629.27	14.578
629.60	14.532
629.92	14.486
630.25	14.427
630.58	14.361
630.91	14.313
631.23	14.272
631.56	14.208
631.89	14.174
632.21	14.139
632.54	14.054
632.87	13.970
633.19	13.872
633.52	13.755
633.85	13.659
634.18	13.464
634.50	13.309
634.83	13.123
635.16	12.967
635.48	12.792
635.81	12.525
636.14	12.334
636.46	12.105
636.79	11.881
637.11	11.627
637.44	11.385
637.77	11.195
638.09	10.960
638.42	10.830
638.75	10.561
639.07	10.328
639.40	10.140
639.73	9.909
640.05	9.680
640.38	9.443
640.70	9.252
641.03	9.035
641.36	8.841
641.68	8.663
642.01	8.383
642.33	8.220
642.66	8.004
642.98	7.854
643.31	7.705
