OOIBase32 Version 2.0.0.6 Data File
++++++++++++++++++++++++++++++++++++
Date: 01-24-2012, 17:44:31
User: Valued Ocean Optics Customer
Spectrometer Serial Number: USB2E2917
Spectrometer Channel: Master
Integration Time (msec): 7
Spectra Averaged: 10
Boxcar Smoothing: 5
Correct for Electrical Dark: Enabled
Time Normalized: Disabled
Dual-beam Reference: Disabled
Reference Channel: Master
Temperature: Not acquired
Spectrometer Type: S2000
ADC Type: USB2000
Number of Pixels in File: 2048
Graph Title: 
>>>>>Begin Spectral Data<<<<<
180.30	0.000
180.67	0.000
181.03	34.237
181.40	-47938.095
181.77	240.253
182.14	-73.315
182.51	-164.067
182.88	228.261
183.25	26.067
183.62	-51.141
183.99	102.574
184.36	-28.168
184.73	-15.653
185.10	76.922
185.46	58.306
185.83	322.660
186.20	-298.194
186.57	149.415
186.94	33.817
187.31	120.823
187.68	-298.968
188.05	389.961
188.42	116.827
188.78	15.505
189.15	17.174
189.52	39.122
189.89	11.029
190.26	2.170
190.63	-0.030
191.00	-5.253
191.37	-12.044
191.73	-25.630
192.10	-81.594
192.47	-27.560
192.84	-6.089
193.21	-19.246
193.58	-6.063
193.94	0.139
194.31	-0.026
194.68	-6.359
195.05	-5.611
195.42	11.903
195.79	27.850
196.15	41.441
196.52	24.031
196.89	18.725
197.26	13.179
197.63	10.276
198.00	6.667
198.36	-4.241
198.73	2.735
199.10	3.743
199.47	-0.886
199.84	-6.435
200.20	-5.885
200.57	-30.096
200.94	-30.805
201.31	0.901
201.68	-15.233
202.04	-20.673
202.41	-9.081
202.78	-14.950
203.15	-12.177
203.51	-26.365
203.88	-17.412
204.25	-17.171
204.62	-0.682
204.98	0.110
205.35	-9.360
205.72	-4.517
206.09	17.997
206.46	31.728
206.82	37.949
207.19	28.374
207.56	34.160
207.92	24.990
208.29	-1.222
208.66	-23.031
209.03	-15.793
209.39	-30.583
209.76	-24.726
210.13	-40.354
210.50	-44.129
210.86	-23.574
211.23	-19.260
211.60	-11.680
211.96	-15.004
212.33	1.262
212.70	15.410
213.07	14.150
213.43	17.473
213.80	17.698
214.17	32.689
214.53	28.779
214.90	25.511
215.27	24.826
215.63	14.876
216.00	13.784
216.37	21.430
216.74	21.383
217.10	19.106
217.47	25.675
217.84	16.357
218.20	-16.589
218.57	-35.326
218.94	-21.731
219.30	-21.528
219.67	-12.104
220.04	-10.976
220.40	-26.926
220.77	-25.078
221.13	-26.745
221.50	-32.333
221.87	-23.710
222.23	-27.932
222.60	-11.344
222.97	-18.857
223.33	-14.855
223.70	-16.519
224.07	-12.308
224.43	-7.847
224.80	-12.905
225.16	-3.452
225.53	-0.363
225.90	-2.736
226.26	-0.774
226.63	-5.689
226.99	-2.750
227.36	-2.267
227.73	-4.162
228.09	-8.032
228.46	-8.043
228.82	-3.365
229.19	-7.445
229.56	-8.950
229.92	-7.368
230.29	-5.403
230.65	-3.375
231.02	-3.127
231.38	-3.137
231.75	0.886
232.12	2.292
232.48	1.493
232.85	-2.518
233.21	-0.004
233.58	0.018
233.94	-1.370
234.31	-8.247
234.68	-7.701
235.04	-7.484
235.41	-7.407
235.77	-9.707
236.14	-7.586
236.50	-5.876
236.87	-4.411
237.23	-4.336
237.60	-5.009
237.96	-3.521
238.33	-0.424
238.69	-0.055
239.06	-0.178
239.42	-0.047
239.79	0.100
240.15	0.101
240.52	0.531
240.88	0.341
241.25	-0.082
241.61	1.160
241.98	0.072
242.34	0.516
242.71	0.669
243.07	0.848
243.44	1.203
243.80	1.539
244.17	1.360
244.53	0.825
244.90	0.541
245.26	1.109
245.63	0.791
245.99	1.129
246.36	0.675
246.72	0.723
247.09	0.556
247.45	0.310
247.81	0.042
248.18	0.136
248.54	0.327
248.91	0.421
249.27	0.077
249.64	0.330
250.00	-0.229
250.36	0.034
250.73	0.029
251.09	0.036
251.46	-0.159
251.82	0.102
252.19	-0.303
252.55	-0.645
252.91	-0.696
253.28	-0.065
253.64	0.828
254.01	1.288
254.37	1.179
254.73	0.776
255.10	1.472
255.46	1.698
255.83	1.762
256.19	1.557
256.55	1.612
256.92	1.506
257.28	1.162
257.65	0.828
258.01	1.185
258.37	1.216
258.74	1.353
259.10	1.182
259.46	1.077
259.83	1.024
260.19	1.219
260.55	1.498
260.92	1.537
261.28	1.613
261.64	1.713
262.01	1.525
262.37	1.674
262.73	1.586
263.10	1.023
263.46	1.174
263.82	1.060
264.19	1.209
264.55	1.451
264.91	1.680
265.28	1.626
265.64	1.581
266.00	1.187
266.37	1.386
266.73	1.345
267.09	1.552
267.46	1.509
267.82	1.746
268.18	1.753
268.54	1.220
268.91	0.634
269.27	0.655
269.63	0.750
270.00	1.137
270.36	1.159
270.72	0.760
271.08	1.059
271.45	0.930
271.81	0.500
272.17	0.150
272.53	0.281
272.90	0.835
273.26	0.801
273.62	0.617
273.98	0.359
274.35	-0.030
274.71	0.242
275.07	-0.030
275.43	0.098
275.80	0.297
276.16	0.228
276.52	0.378
276.88	0.130
277.25	0.034
277.61	0.063
277.97	-0.076
278.33	0.108
278.69	0.426
279.06	-0.105
279.42	-0.232
279.78	-0.490
280.14	-0.138
280.50	-0.492
280.87	-0.130
281.23	0.102
281.59	0.225
281.95	0.312
282.31	0.293
282.68	0.113
283.04	0.510
283.40	0.486
283.76	0.678
284.12	0.862
284.48	0.927
284.85	0.705
285.21	0.339
285.57	0.184
285.93	0.594
286.29	0.749
286.65	0.714
287.02	0.582
287.38	0.744
287.74	0.760
288.10	0.653
288.46	0.830
288.82	0.969
289.18	1.351
289.54	1.333
289.91	0.969
290.27	0.699
290.63	0.474
290.99	0.783
291.35	0.750
291.71	0.831
292.07	0.752
292.43	0.481
292.79	0.460
293.16	0.319
293.52	0.245
293.88	0.404
294.24	0.361
294.60	0.650
294.96	0.404
295.32	0.450
295.68	0.441
296.04	0.374
296.40	0.326
296.76	0.134
297.12	0.080
297.49	0.127
297.85	-0.000
298.21	0.075
298.57	-0.113
298.93	-0.075
299.29	-0.329
299.65	-0.419
300.01	-0.188
300.37	0.130
300.73	0.346
301.09	0.316
301.45	0.244
301.81	0.089
302.17	0.086
302.53	0.125
302.89	0.076
303.25	0.209
303.61	0.216
303.97	-0.186
304.33	-0.430
304.69	-0.444
305.05	-0.516
305.41	-0.381
305.77	-0.270
306.13	-0.122
306.49	-0.329
306.85	-0.226
307.21	-0.212
307.57	-0.355
307.93	-0.238
308.29	-0.141
308.65	-0.299
309.01	-0.313
309.37	-0.359
309.73	-0.381
310.09	-0.742
310.45	-0.670
310.81	-0.834
311.17	-0.921
311.53	-0.927
311.89	-1.117
312.25	-1.238
312.61	-1.384
312.96	-1.373
313.32	-1.477
313.68	-1.677
314.04	-1.582
314.40	-1.798
314.76	-1.862
315.12	-2.163
315.48	-2.301
315.84	-2.480
316.20	-2.615
316.56	-2.726
316.92	-2.740
317.27	-2.920
317.63	-2.897
317.99	-2.985
318.35	-2.809
318.71	-2.867
319.07	-2.687
319.43	-2.685
319.79	-2.578
320.15	-2.807
320.50	-2.751
320.86	-3.051
321.22	-3.116
321.58	-3.157
321.94	-3.133
322.30	-3.258
322.66	-3.162
323.01	-3.272
323.37	-3.231
323.73	-3.342
324.09	-3.176
324.45	-3.393
324.81	-3.331
325.17	-3.262
325.52	-3.448
325.88	-3.650
326.24	-3.636
326.60	-3.869
326.96	-3.895
327.31	-4.033
327.67	-4.051
328.03	-4.256
328.39	-4.241
328.75	-4.328
329.11	-4.360
329.46	-4.383
329.82	-4.240
330.18	-4.318
330.54	-4.305
330.90	-4.248
331.25	-4.102
331.61	-3.979
331.97	-3.934
332.33	-3.913
332.68	-3.805
333.04	-3.855
333.40	-3.662
333.76	-3.637
334.11	-3.561
334.47	-3.542
334.83	-3.636
335.19	-3.785
335.54	-3.788
335.90	-3.719
336.26	-3.618
336.62	-3.665
336.97	-3.846
337.33	-4.015
337.69	-4.188
338.05	-4.200
338.40	-4.206
338.76	-4.294
339.12	-4.405
339.48	-4.397
339.83	-4.458
340.19	-4.486
340.55	-4.480
340.90	-4.431
341.26	-4.267
341.62	-4.203
341.97	-4.243
342.33	-4.171
342.69	-4.042
343.04	-3.935
343.40	-3.980
343.76	-3.957
344.12	-3.947
344.47	-3.975
344.83	-3.907
345.19	-3.994
345.54	-4.050
345.90	-4.085
346.26	-4.134
346.61	-4.207
346.97	-4.305
347.32	-4.422
347.68	-4.592
348.04	-4.716
348.39	-4.702
348.75	-4.870
349.11	-5.022
349.46	-5.120
349.82	-5.123
350.18	-5.171
350.53	-5.185
350.89	-5.266
351.24	-5.151
351.60	-5.115
351.96	-5.030
352.31	-5.087
352.67	-4.929
353.02	-4.858
353.38	-4.696
353.74	-4.695
354.09	-4.623
354.45	-4.619
354.80	-4.467
355.16	-4.517
355.52	-4.306
355.87	-4.286
356.23	-4.241
356.58	-4.278
356.94	-4.288
357.29	-4.277
357.65	-4.203
358.00	-4.226
358.36	-4.197
358.72	-4.195
359.07	-4.226
359.43	-4.321
359.78	-4.295
360.14	-4.364
360.49	-4.420
360.85	-4.461
361.20	-4.639
361.56	-4.868
361.91	-4.977
362.27	-5.033
362.62	-5.109
362.98	-5.218
363.33	-5.285
363.69	-5.412
364.04	-5.484
364.40	-5.635
364.75	-5.682
365.11	-5.677
365.46	-5.604
365.82	-5.654
366.17	-5.768
366.53	-5.808
366.88	-5.791
367.24	-5.814
367.59	-5.776
367.95	-5.760
368.30	-5.624
368.66	-5.600
369.01	-5.508
369.37	-5.424
369.72	-5.338
370.08	-5.197
370.43	-5.127
370.78	-4.979
371.14	-4.883
371.49	-4.885
371.85	-4.791
372.20	-4.779
372.56	-4.821
372.91	-4.923
373.26	-5.090
373.62	-5.236
373.97	-5.360
374.33	-5.389
374.68	-5.529
375.03	-5.662
375.39	-5.709
375.74	-5.825
376.10	-5.860
376.45	-5.748
376.80	-5.737
377.16	-5.569
377.51	-5.409
377.87	-5.284
378.22	-5.199
378.57	-5.094
378.93	-5.004
379.28	-4.811
379.63	-4.611
379.99	-4.403
380.34	-4.305
380.70	-4.097
381.05	-3.990
381.40	-3.878
381.76	-3.840
382.11	-3.814
382.46	-3.737
382.82	-3.669
383.17	-3.707
383.52	-3.726
383.88	-3.782
384.23	-3.843
384.58	-3.912
384.94	-4.006
385.29	-4.088
385.64	-4.100
385.99	-4.149
386.35	-4.212
386.70	-4.258
387.05	-4.282
387.41	-4.271
387.76	-4.214
388.11	-4.154
388.47	-4.058
388.82	-3.943
389.17	-3.775
389.52	-3.682
389.88	-3.505
390.23	-3.352
390.58	-3.149
390.93	-2.943
391.29	-2.770
391.64	-2.681
391.99	-2.573
392.34	-2.514
392.70	-2.498
393.05	-2.507
393.40	-2.495
393.75	-2.516
394.11	-2.597
394.46	-2.716
394.81	-2.909
395.16	-3.040
395.52	-3.203
395.87	-3.424
396.22	-3.642
396.57	-3.865
396.92	-4.141
397.28	-4.303
397.63	-4.546
397.98	-4.724
398.33	-4.902
398.68	-4.970
399.04	-5.060
399.39	-5.144
399.74	-5.023
400.09	-4.972
400.44	-4.822
400.80	-4.649
401.15	-4.572
401.50	-4.431
401.85	-4.261
402.20	-4.098
402.55	-4.027
402.90	-3.979
403.26	-3.884
403.61	-3.942
403.96	-3.905
404.31	-3.909
404.66	-3.973
405.01	-3.943
405.36	-4.024
405.72	-4.100
406.07	-4.165
406.42	-4.205
406.77	-4.218
407.12	-4.225
407.47	-4.209
407.82	-4.225
408.17	-4.302
408.53	-4.302
408.88	-4.405
409.23	-4.381
409.58	-4.397
409.93	-4.419
410.28	-4.469
410.63	-4.519
410.98	-4.534
411.33	-4.517
411.68	-4.478
412.03	-4.373
412.38	-4.267
412.73	-4.034
413.09	-3.855
413.44	-3.637
413.79	-3.397
414.14	-3.052
414.49	-2.768
414.84	-2.481
415.19	-2.165
415.54	-1.886
415.89	-1.613
416.24	-1.357
416.59	-1.125
416.94	-0.910
417.29	-0.719
417.64	-0.543
417.99	-0.432
418.34	-0.307
418.69	-0.214
419.04	-0.148
419.39	-0.075
419.74	-0.005
420.09	0.057
420.44	0.057
420.79	0.068
421.14	0.056
421.49	0.031
421.84	0.003
422.19	-0.045
422.54	-0.098
422.89	-0.188
423.24	-0.310
423.59	-0.445
423.94	-0.641
424.29	-0.817
424.64	-0.993
424.99	-1.203
425.34	-1.383
425.68	-1.572
426.03	-1.760
426.38	-1.936
426.73	-2.080
427.08	-2.160
427.43	-2.222
427.78	-2.187
428.13	-2.141
428.48	-2.104
428.83	-2.059
429.18	-2.010
429.53	-1.964
429.87	-1.939
430.22	-1.904
430.57	-1.886
430.92	-1.880
431.27	-1.939
431.62	-2.015
431.97	-2.110
432.32	-2.218
432.67	-2.305
433.01	-2.403
433.36	-2.537
433.71	-2.630
434.06	-2.707
434.41	-2.758
434.76	-2.775
435.11	-2.701
435.45	-2.622
435.80	-2.514
436.15	-2.390
436.50	-2.267
436.85	-2.164
437.20	-2.038
437.54	-1.950
437.89	-1.906
438.24	-1.857
438.59	-1.872
438.94	-1.933
439.29	-1.984
439.63	-2.063
439.98	-2.127
440.33	-2.147
440.68	-2.176
441.03	-2.138
441.37	-2.090
441.72	-1.959
442.07	-1.807
442.42	-1.623
442.76	-1.403
443.11	-1.219
443.46	-1.037
443.81	-0.876
444.16	-0.761
444.50	-0.675
444.85	-0.646
445.20	-0.650
445.55	-0.736
445.89	-0.848
446.24	-1.010
446.59	-1.209
446.94	-1.388
447.28	-1.603
447.63	-1.827
447.98	-2.031
448.32	-2.197
448.67	-2.348
449.02	-2.393
449.37	-2.421
449.71	-2.401
450.06	-2.305
450.41	-2.196
450.75	-2.115
451.10	-2.020
451.45	-1.974
451.79	-1.945
452.14	-1.905
452.49	-1.918
452.84	-1.944
453.18	-1.934
453.53	-1.906
453.88	-1.867
454.22	-1.807
454.57	-1.676
454.92	-1.492
455.26	-1.238
455.61	-1.029
455.95	-0.782
456.30	-0.536
456.65	-0.317
456.99	-0.122
457.34	0.023
457.69	0.130
458.03	0.207
458.38	0.209
458.73	0.152
459.07	0.015
459.42	-0.124
459.76	-0.332
460.11	-0.552
460.46	-0.785
460.80	-1.074
461.15	-1.350
461.49	-1.577
461.84	-1.794
462.19	-1.958
462.53	-2.038
462.88	-2.048
463.22	-2.019
463.57	-1.976
463.91	-1.919
464.26	-1.858
464.61	-1.741
464.95	-1.648
465.30	-1.611
465.64	-1.589
465.99	-1.618
466.33	-1.665
466.68	-1.740
467.02	-1.809
467.37	-1.893
467.71	-1.971
468.06	-2.069
468.41	-2.183
468.75	-2.311
469.10	-2.447
469.44	-2.599
469.79	-2.682
470.13	-2.786
470.48	-2.868
470.82	-2.961
471.17	-3.039
471.51	-3.119
471.86	-3.184
472.20	-3.273
472.55	-3.349
472.89	-3.377
473.23	-3.380
473.58	-3.419
473.92	-3.391
474.27	-3.383
474.61	-3.372
474.96	-3.343
475.30	-3.329
475.65	-3.302
475.99	-3.249
476.34	-3.185
476.68	-3.119
477.02	-3.044
477.37	-2.908
477.71	-2.737
478.06	-2.452
478.40	-1.950
478.75	-1.305
479.09	-0.647
479.43	-0.028
479.78	0.538
480.12	1.045
480.47	1.483
480.81	1.876
481.15	2.239
481.50	2.543
481.84	2.827
482.19	3.052
482.53	3.199
482.87	3.283
483.22	3.282
483.56	3.230
483.90	3.139
484.25	3.048
484.59	2.947
484.94	2.822
485.28	2.687
485.62	2.511
485.97	2.316
486.31	2.147
486.65	2.013
487.00	1.938
487.34	1.877
487.68	1.841
488.03	1.791
488.37	1.738
488.71	1.673
489.06	1.630
489.40	1.596
489.74	1.553
490.09	1.479
490.43	1.369
490.77	1.209
491.11	1.033
491.46	0.849
491.80	0.639
492.14	0.446
492.49	0.257
492.83	0.022
493.17	-0.189
493.51	-0.373
493.86	-0.511
494.20	-0.592
494.54	-0.560
494.88	-0.467
495.23	-0.328
495.57	-0.182
495.91	-0.058
496.25	0.054
496.60	0.187
496.94	0.274
497.28	0.338
497.62	0.394
497.97	0.435
498.31	0.473
498.65	0.537
498.99	0.572
499.33	0.652
499.68	0.753
500.02	0.848
500.36	0.960
500.70	1.083
501.04	1.224
501.39	1.391
501.73	1.580
502.07	1.776
502.41	1.981
502.75	2.155
503.09	2.373
503.44	2.578
503.78	2.820
504.12	3.055
504.46	3.320
504.80	3.595
505.14	3.846
505.49	4.127
505.83	4.384
506.17	4.625
506.51	4.899
506.85	5.137
507.19	5.362
507.53	5.597
507.87	5.808
508.22	6.004
508.56	6.174
508.90	6.347
509.24	6.501
509.58	6.680
509.92	6.848
510.26	7.010
510.60	7.131
510.94	7.279
511.28	7.424
511.63	7.578
511.97	7.767
512.31	7.981
512.65	8.217
512.99	8.493
513.33	8.793
513.67	9.126
514.01	9.453
514.35	9.866
514.69	10.238
515.03	10.601
515.37	10.954
515.71	11.264
516.05	11.543
516.39	11.774
516.73	11.963
517.07	12.119
517.41	12.242
517.75	12.322
518.09	12.346
518.43	12.378
518.77	12.365
519.11	12.366
519.45	12.354
519.79	12.325
520.13	12.365
520.47	12.438
520.81	12.557
521.15	12.705
521.49	12.914
521.83	13.169
522.17	13.452
522.51	13.785
522.85	14.126
523.19	14.591
523.53	15.177
523.87	15.748
524.21	16.276
524.55	16.743
524.89	17.163
525.23	17.568
525.57	17.907
525.91	18.188
526.25	18.444
526.58	18.681
526.92	18.841
527.26	18.933
527.60	18.976
527.94	18.984
528.28	18.957
528.62	18.918
528.96	18.842
529.30	18.755
529.64	18.682
529.97	18.581
530.31	18.477
530.65	18.398
530.99	18.331
531.33	18.284
531.67	18.270
532.01	18.271
532.35	18.248
532.68	18.220
533.02	18.180
533.36	18.125
533.70	18.062
534.04	17.996
534.38	17.910
534.71	17.833
535.05	17.763
535.39	17.697
535.73	17.674
536.07	17.719
536.41	17.815
536.74	17.993
537.08	18.186
537.42	18.414
537.76	18.663
538.10	18.933
538.43	19.202
538.77	19.438
539.11	19.637
539.45	19.799
539.79	19.950
540.12	20.090
540.46	20.148
540.80	20.178
541.14	20.191
541.47	20.164
541.81	20.105
542.15	20.009
542.49	19.917
542.82	19.838
543.16	19.753
543.50	19.643
543.84	19.505
544.17	19.448
544.51	19.405
544.85	19.370
545.18	19.340
545.52	19.317
545.86	19.285
546.20	19.215
546.53	19.135
546.87	19.109
547.21	19.076
547.54	19.064
547.88	19.010
548.22	19.019
548.55	19.041
548.89	19.093
549.23	19.168
549.56	19.269
549.90	19.407
550.24	19.518
550.57	19.615
550.91	19.747
551.25	19.884
551.58	20.026
551.92	20.132
552.26	20.208
552.59	20.294
552.93	20.351
553.27	20.424
553.60	20.520
553.94	20.630
554.27	20.753
554.61	20.850
554.95	20.964
555.28	21.078
555.62	21.189
555.95	21.358
556.29	21.526
556.63	21.706
556.96	21.852
557.30	21.962
557.63	22.096
557.97	22.215
558.31	22.349
558.64	22.440
558.98	22.542
559.31	22.652
559.65	22.751
559.98	22.836
560.32	22.914
560.65	23.044
560.99	23.229
561.33	23.413
561.66	23.543
562.00	23.690
562.33	23.846
562.67	24.029
563.00	24.184
563.34	24.345
563.67	24.538
564.01	24.729
564.34	24.850
564.68	24.950
565.01	25.028
565.35	25.162
565.68	25.263
566.02	25.381
566.35	25.446
566.69	25.565
567.02	25.640
567.36	25.698
567.69	25.753
568.03	25.838
568.36	25.949
568.69	26.054
569.03	26.131
569.36	26.236
569.70	26.315
570.03	26.407
570.37	26.475
570.70	26.512
571.04	26.574
571.37	26.624
571.70	26.700
572.04	26.745
572.37	26.787
572.71	26.827
573.04	26.852
573.37	26.879
573.71	26.905
574.04	26.896
574.38	26.942
574.71	26.931
575.04	26.923
575.38	26.871
575.71	26.807
576.05	26.746
576.38	26.704
576.71	26.649
577.05	26.583
577.38	26.535
577.71	26.531
578.05	26.491
578.38	26.443
578.71	26.451
579.05	26.458
579.38	26.481
579.71	26.520
580.05	26.511
580.38	26.501
580.71	26.525
581.05	26.557
581.38	26.553
581.71	26.605
582.05	26.632
582.38	26.673
582.71	26.730
583.04	26.775
583.38	26.834
583.71	26.929
584.04	26.994
584.38	27.028
584.71	27.095
585.04	27.149
585.37	27.231
585.71	27.371
586.04	27.436
586.37	27.543
586.70	27.670
587.04	27.727
587.37	27.728
587.70	27.829
588.03	27.903
588.37	27.977
588.70	28.056
589.03	28.084
589.36	28.086
589.69	28.119
590.03	28.073
590.36	28.013
590.69	28.017
591.02	28.025
591.35	28.016
591.69	28.040
592.02	28.011
592.35	28.057
592.68	28.073
593.01	28.145
593.35	28.172
593.68	28.257
594.01	28.301
594.34	28.370
594.67	28.437
595.00	28.509
595.34	28.573
595.67	28.641
596.00	28.639
596.33	28.655
596.66	28.605
596.99	28.569
597.32	28.518
597.65	28.486
597.99	28.390
598.32	28.331
598.65	28.258
598.98	28.179
599.31	28.142
599.64	28.109
599.97	28.108
600.30	28.148
600.63	28.190
600.96	28.280
601.30	28.305
601.63	28.340
601.96	28.420
602.29	28.426
602.62	28.462
602.95	28.454
603.28	28.459
603.61	28.420
603.94	28.364
604.27	28.251
604.60	28.130
604.93	28.059
605.26	27.951
605.59	27.815
605.92	27.682
606.25	27.584
606.58	27.473
606.91	27.392
607.24	27.321
607.57	27.245
607.90	27.203
608.23	27.101
608.56	27.003
608.89	26.933
609.22	26.823
609.55	26.681
609.88	26.521
610.21	26.401
610.54	26.199
610.87	25.996
611.20	25.796
611.53	25.624
611.86	25.448
612.19	25.289
612.52	25.127
612.85	25.003
613.18	24.913
613.51	24.776
613.84	24.645
614.17	24.545
614.49	24.440
614.82	24.305
615.15	24.172
615.48	24.050
615.81	23.962
616.14	23.850
616.47	23.740
616.80	23.669
617.13	23.586
617.46	23.455
617.78	23.346
618.11	23.250
618.44	23.188
618.77	23.103
619.10	23.059
619.43	22.949
619.76	22.874
620.09	22.801
620.41	22.701
620.74	22.629
621.07	22.567
621.40	22.547
621.73	22.597
622.06	22.632
622.38	22.652
622.71	22.673
623.04	22.747
623.37	22.803
623.70	22.820
624.02	22.908
624.35	22.984
624.68	23.077
625.01	23.160
625.34	23.187
625.66	23.188
625.99	23.229
626.32	23.252
626.65	23.254
626.98	23.253
627.30	23.268
627.63	23.233
627.96	23.176
628.29	23.086
628.61	23.033
628.94	22.918
629.27	22.891
629.60	22.876
629.92	22.799
630.25	22.683
630.58	22.632
630.91	22.552
631.23	22.460
631.56	22.388
631.89	22.322
632.21	22.211
632.54	22.149
632.87	22.061
633.19	21.932
633.52	21.817
633.85	21.712
634.18	21.499
634.50	21.307
634.83	21.081
635.16	20.857
635.48	20.707
635.81	20.473
636.14	20.214
636.46	19.912
636.79	19.607
637.11	19.290
637.44	19.033
637.77	18.773
