OOIBase32 Version 2.0.0.6 Data File
++++++++++++++++++++++++++++++++++++
Date: 01-24-2012, 17:44:51
User: Valued Ocean Optics Customer
Spectrometer Serial Number: USB2E2917
Spectrometer Channel: Master
Integration Time (msec): 7
Spectra Averaged: 10
Boxcar Smoothing: 5
Correct for Electrical Dark: Enabled
Time Normalized: Disabled
Dual-beam Reference: Disabled
Reference Channel: Master
Temperature: Not acquired
Spectrometer Type: S2000
ADC Type: USB2000
Number of Pixels in File: 2048
Graph Title: 
>>>>>Begin Spectral Data<<<<<
180.30	0.000
180.67	0.000
181.03	247.306
181.40	-320247.619
181.77	-1008.801
182.14	263.518
182.51	-1.386
182.88	80.716
183.25	62.551
183.62	-8.718
183.99	17.152
184.36	-58.443
184.73	32.650
185.10	6.708
185.46	75.812
185.83	-13.070
186.20	-177.568
186.57	267.560
186.94	-61.456
187.31	30.958
187.68	-172.823
188.05	351.287
188.42	90.826
188.78	8.249
189.15	2.749
189.52	20.727
189.89	0.991
190.26	-6.829
190.63	-0.844
191.00	-8.218
191.37	-23.968
191.73	-30.846
192.10	-37.901
192.47	3.691
192.84	13.052
193.21	-5.403
193.58	-14.998
193.94	-15.639
194.31	-3.127
194.68	-5.448
195.05	-0.860
195.42	9.784
195.79	27.229
196.15	32.748
196.52	26.167
196.89	36.007
197.26	46.252
197.63	46.705
198.00	50.611
198.36	56.079
198.73	43.385
199.10	20.133
199.47	18.948
199.84	4.941
200.20	-16.510
200.57	-40.839
200.94	-69.727
201.31	-36.914
201.68	-26.557
202.04	-28.462
202.41	-25.033
202.78	-14.244
203.15	-10.288
203.51	-20.706
203.88	-11.320
204.25	3.497
204.62	17.211
204.98	21.369
205.35	11.477
205.72	5.824
206.09	27.531
206.46	29.058
206.82	26.898
207.19	66.891
207.56	69.503
207.92	66.864
208.29	52.156
208.66	26.319
209.03	27.293
209.39	28.642
209.76	27.947
210.13	1.911
210.50	-15.151
210.86	-4.193
211.23	-12.783
211.60	-5.450
211.96	-14.282
212.33	-5.149
212.70	7.166
213.07	-7.464
213.43	-11.034
213.80	-4.258
214.17	17.198
214.53	28.845
214.90	25.577
215.27	18.895
215.63	18.098
216.00	5.522
216.37	15.383
216.74	3.242
217.10	14.425
217.47	23.966
217.84	18.660
218.20	-3.905
218.57	6.498
218.94	20.442
219.30	15.824
219.67	2.363
220.04	7.712
220.40	-1.419
220.77	1.542
221.13	8.122
221.50	3.314
221.87	4.358
222.23	7.815
222.60	2.144
222.97	-6.391
223.33	-3.338
223.70	0.029
224.07	-0.889
224.43	0.602
224.80	-3.099
225.16	-1.131
225.53	-1.509
225.90	-4.718
226.26	-6.490
226.63	-8.366
226.99	-6.951
227.36	-6.904
227.73	-8.922
228.09	-7.321
228.46	-9.755
228.82	-6.826
229.19	-8.109
229.56	-7.407
229.92	-4.971
230.29	-3.710
230.65	-1.906
231.02	0.884
231.38	0.160
231.75	2.680
232.12	0.160
232.48	0.633
232.85	-1.234
233.21	-2.155
233.58	-3.390
233.94	-4.584
234.31	-8.356
234.68	-7.563
235.04	-7.468
235.41	-4.767
235.77	-4.538
236.14	-3.552
236.50	-0.844
236.87	-1.427
237.23	-1.826
237.60	-3.218
237.96	-3.511
238.33	-2.104
238.69	-2.358
239.06	-1.932
239.42	-1.730
239.79	-2.177
240.15	-0.935
240.52	-0.618
240.88	-0.240
241.25	-0.037
241.61	1.127
241.98	1.574
242.34	2.088
242.71	2.109
243.07	0.912
243.44	0.422
243.80	0.866
244.17	0.269
244.53	0.143
244.90	-0.323
245.26	-0.199
245.63	-0.275
245.99	-0.597
246.36	-0.733
246.72	-0.656
247.09	-0.018
247.45	0.108
247.81	0.044
248.18	0.338
248.54	0.259
248.91	0.424
249.27	0.549
249.64	0.579
250.00	0.373
250.36	0.423
250.73	0.733
251.09	0.320
251.46	0.097
251.82	0.171
252.19	-0.534
252.55	-0.641
252.91	-0.623
253.28	-0.341
253.64	0.452
254.01	1.124
254.37	0.986
254.73	0.657
255.10	1.107
255.46	1.393
255.83	1.115
256.19	1.601
256.55	1.389
256.92	1.337
257.28	1.242
257.65	1.051
258.01	1.256
258.37	1.164
258.74	0.990
259.10	0.873
259.46	0.855
259.83	1.106
260.19	1.122
260.55	1.442
260.92	1.803
261.28	1.862
261.64	1.873
262.01	1.676
262.37	2.124
262.73	2.198
263.10	1.798
263.46	1.645
263.82	1.423
264.19	1.524
264.55	1.556
264.91	1.383
265.28	1.569
265.64	1.640
266.00	1.338
266.37	1.243
266.73	1.491
267.09	1.801
267.46	2.008
267.82	1.833
268.18	1.739
268.54	1.058
268.91	0.831
269.27	0.450
269.63	0.642
270.00	1.124
270.36	1.040
270.72	0.732
271.08	0.737
271.45	0.681
271.81	0.590
272.17	0.375
272.53	0.832
272.90	1.239
273.26	1.302
273.62	0.988
273.98	0.970
274.35	0.850
274.71	1.211
275.07	0.984
275.43	0.953
275.80	1.100
276.16	0.949
276.52	1.214
276.88	0.766
277.25	0.777
277.61	0.878
277.97	0.475
278.33	0.603
278.69	0.292
279.06	0.566
279.42	0.399
279.78	0.332
280.14	0.494
280.50	0.165
280.87	0.532
281.23	0.538
281.59	0.585
281.95	0.771
282.31	0.598
282.68	0.672
283.04	0.711
283.40	0.703
283.76	0.838
284.12	1.092
284.48	1.082
284.85	0.839
285.21	0.728
285.57	0.697
285.93	0.667
286.29	0.955
286.65	1.046
287.02	0.948
287.38	1.017
287.74	1.035
288.10	0.890
288.46	1.047
288.82	1.209
289.18	1.187
289.54	1.201
289.91	1.230
290.27	0.929
290.63	0.648
290.99	0.703
291.35	0.681
291.71	0.552
292.07	0.557
292.43	0.311
292.79	0.439
293.16	0.660
293.52	0.405
293.88	0.333
294.24	0.322
294.60	0.516
294.96	0.396
295.32	0.516
295.68	0.568
296.04	0.464
296.40	0.425
296.76	0.091
297.12	-0.142
297.49	-0.151
297.85	-0.209
298.21	-0.062
298.57	-0.290
298.93	-0.178
299.29	-0.396
299.65	-0.574
300.01	-0.473
300.37	-0.155
300.73	-0.019
301.09	0.131
301.45	0.196
301.81	0.167
302.17	-0.019
302.53	0.136
302.89	-0.009
303.25	0.031
303.61	0.189
303.97	-0.044
304.33	-0.495
304.69	-0.470
305.05	-0.598
305.41	-0.598
305.77	-0.565
306.13	-0.455
306.49	-0.690
306.85	-0.678
307.21	-0.521
307.57	-0.670
307.93	-0.529
308.29	-0.371
308.65	-0.509
309.01	-0.555
309.37	-0.561
309.73	-0.707
310.09	-0.817
310.45	-0.669
310.81	-0.590
311.17	-0.744
311.53	-0.720
311.89	-0.833
312.25	-0.869
312.61	-0.948
312.96	-0.879
313.32	-1.075
313.68	-0.997
314.04	-0.986
314.40	-1.203
314.76	-1.351
315.12	-1.452
315.48	-1.636
315.84	-1.762
316.20	-1.912
316.56	-1.984
316.92	-2.008
317.27	-2.081
317.63	-2.158
317.99	-2.309
318.35	-2.271
318.71	-2.401
319.07	-2.455
319.43	-2.470
319.79	-2.516
320.15	-2.693
320.50	-2.765
320.86	-2.947
321.22	-2.969
321.58	-3.062
321.94	-3.046
322.30	-3.095
322.66	-3.196
323.01	-3.299
323.37	-3.223
323.73	-3.368
324.09	-3.341
324.45	-3.439
324.81	-3.448
325.17	-3.588
325.52	-3.644
325.88	-3.891
326.24	-3.969
326.60	-4.144
326.96	-4.204
327.31	-4.430
327.67	-4.448
328.03	-4.587
328.39	-4.646
328.75	-4.774
329.11	-4.671
329.46	-4.800
329.82	-4.594
330.18	-4.638
330.54	-4.636
330.90	-4.525
331.25	-4.351
331.61	-4.105
331.97	-3.977
332.33	-3.844
332.68	-3.786
333.04	-3.855
333.40	-3.775
333.76	-3.762
334.11	-3.733
334.47	-3.647
334.83	-3.718
335.19	-3.808
335.54	-3.933
335.90	-3.927
336.26	-3.946
336.62	-3.929
336.97	-4.000
337.33	-3.975
337.69	-4.074
338.05	-4.041
338.40	-4.093
338.76	-4.244
339.12	-4.366
339.48	-4.358
339.83	-4.332
340.19	-4.303
340.55	-4.335
340.90	-4.267
341.26	-4.209
341.62	-4.212
341.97	-4.196
342.33	-4.084
342.69	-3.951
343.04	-3.935
343.40	-4.009
343.76	-4.015
344.12	-4.059
344.47	-3.989
344.83	-3.906
345.19	-4.037
345.54	-4.088
345.90	-4.194
346.26	-4.205
346.61	-4.292
346.97	-4.295
347.32	-4.341
347.68	-4.450
348.04	-4.561
348.39	-4.631
348.75	-4.828
349.11	-4.919
349.46	-4.962
349.82	-4.984
350.18	-5.069
350.53	-5.002
350.89	-5.083
351.24	-5.033
351.60	-5.083
351.96	-5.025
352.31	-5.068
352.67	-4.981
353.02	-4.918
353.38	-4.772
353.74	-4.686
354.09	-4.597
354.45	-4.623
354.80	-4.516
355.16	-4.561
355.52	-4.405
355.87	-4.341
356.23	-4.279
356.58	-4.281
356.94	-4.235
357.29	-4.269
357.65	-4.253
358.00	-4.304
358.36	-4.285
358.72	-4.243
359.07	-4.212
359.43	-4.280
359.78	-4.324
360.14	-4.419
360.49	-4.488
360.85	-4.535
361.20	-4.677
361.56	-4.801
361.91	-4.903
362.27	-5.051
362.62	-5.143
362.98	-5.289
363.33	-5.341
363.69	-5.468
364.04	-5.477
364.40	-5.569
364.75	-5.626
365.11	-5.640
365.46	-5.689
365.82	-5.752
366.17	-5.777
366.53	-5.822
366.88	-5.824
367.24	-5.826
367.59	-5.736
367.95	-5.736
368.30	-5.627
368.66	-5.597
369.01	-5.528
369.37	-5.346
369.72	-5.236
370.08	-5.062
370.43	-4.962
370.78	-4.881
371.14	-4.822
371.49	-4.849
371.85	-4.804
372.20	-4.825
372.56	-4.891
372.91	-4.949
373.26	-5.152
373.62	-5.270
373.97	-5.397
374.33	-5.489
374.68	-5.492
375.03	-5.607
375.39	-5.616
375.74	-5.763
376.10	-5.774
376.45	-5.665
376.80	-5.628
377.16	-5.441
377.51	-5.295
377.87	-5.183
378.22	-5.082
378.57	-4.952
378.93	-4.866
379.28	-4.656
379.63	-4.418
379.99	-4.237
380.34	-4.087
380.70	-3.885
381.05	-3.773
381.40	-3.622
381.76	-3.585
382.11	-3.559
382.46	-3.545
382.82	-3.489
383.17	-3.557
383.52	-3.587
383.88	-3.642
384.23	-3.736
384.58	-3.859
384.94	-3.980
385.29	-4.075
385.64	-4.095
385.99	-4.109
386.35	-4.158
386.70	-4.169
387.05	-4.176
387.41	-4.145
387.76	-4.101
388.11	-4.029
388.47	-3.899
388.82	-3.795
389.17	-3.704
389.52	-3.576
389.88	-3.438
390.23	-3.297
390.58	-3.082
390.93	-2.936
391.29	-2.819
391.64	-2.771
391.99	-2.698
392.34	-2.681
392.70	-2.701
393.05	-2.707
393.40	-2.749
393.75	-2.833
394.11	-2.969
394.46	-3.148
394.81	-3.307
395.16	-3.442
395.52	-3.579
395.87	-3.840
396.22	-4.098
396.57	-4.325
396.92	-4.623
397.28	-4.845
397.63	-5.068
397.98	-5.263
398.33	-5.494
398.68	-5.648
399.04	-5.801
399.39	-5.934
399.74	-5.873
400.09	-5.863
400.44	-5.797
400.80	-5.698
401.15	-5.662
401.50	-5.591
401.85	-5.449
402.20	-5.333
402.55	-5.309
402.90	-5.257
403.26	-5.184
403.61	-5.232
403.96	-5.227
404.31	-5.240
404.66	-5.294
405.01	-5.332
405.36	-5.398
405.72	-5.535
406.07	-5.621
406.42	-5.680
406.77	-5.763
407.12	-5.835
407.47	-5.853
407.82	-5.924
408.17	-5.996
408.53	-6.029
408.88	-6.077
409.23	-6.112
409.58	-6.163
409.93	-6.232
410.28	-6.262
410.63	-6.335
410.98	-6.362
411.33	-6.386
411.68	-6.337
412.03	-6.301
412.38	-6.189
412.73	-6.001
413.09	-5.805
413.44	-5.579
413.79	-5.301
414.14	-4.984
414.49	-4.690
414.84	-4.395
415.19	-4.114
415.54	-3.831
415.89	-3.516
416.24	-3.269
416.59	-3.043
416.94	-2.834
417.29	-2.647
417.64	-2.485
417.99	-2.378
418.34	-2.255
418.69	-2.176
419.04	-2.099
419.39	-2.036
419.74	-1.982
420.09	-1.930
420.44	-1.928
420.79	-1.926
421.14	-1.927
421.49	-1.949
421.84	-1.994
422.19	-2.047
422.54	-2.098
422.89	-2.190
423.24	-2.334
423.59	-2.483
423.94	-2.680
424.29	-2.859
424.64	-3.049
424.99	-3.268
425.34	-3.471
425.68	-3.634
426.03	-3.807
426.38	-4.007
426.73	-4.148
427.08	-4.179
427.43	-4.220
427.78	-4.145
428.13	-4.090
428.48	-4.042
428.83	-3.995
429.18	-3.908
429.53	-3.865
429.87	-3.821
430.22	-3.752
430.57	-3.728
430.92	-3.745
431.27	-3.779
431.62	-3.873
431.97	-3.980
432.32	-4.091
432.67	-4.176
433.01	-4.309
433.36	-4.448
433.71	-4.578
434.06	-4.675
434.41	-4.707
434.76	-4.724
435.11	-4.678
435.45	-4.601
435.80	-4.459
436.15	-4.343
436.50	-4.217
436.85	-4.075
437.20	-3.942
437.54	-3.858
437.89	-3.796
438.24	-3.771
438.59	-3.761
438.94	-3.824
439.29	-3.892
439.63	-3.987
439.98	-4.041
440.33	-4.085
440.68	-4.146
441.03	-4.135
441.37	-4.068
441.72	-3.976
442.07	-3.842
442.42	-3.667
442.76	-3.477
443.11	-3.296
443.46	-3.152
443.81	-3.017
444.16	-2.923
444.50	-2.863
444.85	-2.855
445.20	-2.886
445.55	-2.986
445.89	-3.130
446.24	-3.336
446.59	-3.559
446.94	-3.793
447.28	-4.030
447.63	-4.272
447.98	-4.506
448.32	-4.703
448.67	-4.874
449.02	-4.990
449.37	-5.053
449.71	-5.034
450.06	-4.966
450.41	-4.891
450.75	-4.830
451.10	-4.763
451.45	-4.742
451.79	-4.717
452.14	-4.681
452.49	-4.697
452.84	-4.700
453.18	-4.701
453.53	-4.696
453.88	-4.680
454.22	-4.597
454.57	-4.445
454.92	-4.229
455.26	-3.982
455.61	-3.746
455.95	-3.535
456.30	-3.300
456.65	-3.088
456.99	-2.884
457.34	-2.729
457.69	-2.612
458.03	-2.541
458.38	-2.543
458.73	-2.640
459.07	-2.773
459.42	-2.921
459.76	-3.121
460.11	-3.351
460.46	-3.592
460.80	-3.897
461.15	-4.188
461.49	-4.442
461.84	-4.652
462.19	-4.838
462.53	-4.918
462.88	-4.942
463.22	-4.944
463.57	-4.890
463.91	-4.837
464.26	-4.785
464.61	-4.663
464.95	-4.575
465.30	-4.504
465.64	-4.504
465.99	-4.526
466.33	-4.558
466.68	-4.651
467.02	-4.728
467.37	-4.800
467.71	-4.881
468.06	-4.970
468.41	-5.091
468.75	-5.206
469.10	-5.373
469.44	-5.548
469.79	-5.640
470.13	-5.725
470.48	-5.801
470.82	-5.883
471.17	-5.964
471.51	-6.045
471.86	-6.129
472.20	-6.216
472.55	-6.294
472.89	-6.310
473.23	-6.291
473.58	-6.314
473.92	-6.296
474.27	-6.264
474.61	-6.237
474.96	-6.210
475.30	-6.195
475.65	-6.140
475.99	-6.070
476.34	-6.010
476.68	-5.943
477.02	-5.849
477.37	-5.716
477.71	-5.537
478.06	-5.220
478.40	-4.732
478.75	-4.070
479.09	-3.381
479.43	-2.762
479.78	-2.198
480.12	-1.703
480.47	-1.275
480.81	-0.892
481.15	-0.549
481.50	-0.255
481.84	-0.006
482.19	0.202
482.53	0.323
482.87	0.395
483.22	0.415
483.56	0.402
483.90	0.359
484.25	0.299
484.59	0.210
484.94	0.106
485.28	-0.014
485.62	-0.161
485.97	-0.330
486.31	-0.464
486.65	-0.589
487.00	-0.696
487.34	-0.807
487.68	-0.894
488.03	-0.971
488.37	-1.037
488.71	-1.101
489.06	-1.152
489.40	-1.206
489.74	-1.259
490.09	-1.365
490.43	-1.483
490.77	-1.639
491.11	-1.824
491.46	-2.030
491.80	-2.249
492.14	-2.455
492.49	-2.682
492.83	-2.930
493.17	-3.151
493.51	-3.340
493.86	-3.483
494.20	-3.560
494.54	-3.553
494.88	-3.454
495.23	-3.317
495.57	-3.173
495.91	-3.058
496.25	-2.923
496.60	-2.787
496.94	-2.690
497.28	-2.622
497.62	-2.563
497.97	-2.536
498.31	-2.472
498.65	-2.417
498.99	-2.365
499.33	-2.278
499.68	-2.170
500.02	-2.077
500.36	-1.977
500.70	-1.838
501.04	-1.689
501.39	-1.511
501.73	-1.312
502.07	-1.122
502.41	-0.885
502.75	-0.677
503.09	-0.444
503.44	-0.195
503.78	0.063
504.12	0.334
504.46	0.627
504.80	0.928
505.14	1.232
505.49	1.555
505.83	1.869
506.17	2.122
506.51	2.436
506.85	2.709
507.19	2.969
507.53	3.272
507.87	3.547
508.22	3.780
508.56	4.012
508.90	4.235
509.24	4.409
509.58	4.604
509.92	4.828
510.26	5.041
510.60	5.221
510.94	5.432
511.28	5.600
511.63	5.810
511.97	6.075
512.31	6.342
512.65	6.655
512.99	7.019
513.33	7.410
513.67	7.840
514.01	8.269
514.35	8.740
514.69	9.184
515.03	9.652
515.37	10.073
515.71	10.436
516.05	10.796
516.39	11.088
516.73	11.350
517.07	11.589
517.41	11.761
517.75	11.906
518.09	12.035
518.43	12.119
518.77	12.161
519.11	12.221
519.45	12.296
519.79	12.378
520.13	12.518
520.47	12.680
520.81	12.918
521.15	13.170
521.49	13.460
521.83	13.796
522.17	14.164
522.51	14.604
522.85	15.072
523.19	15.614
523.53	16.206
523.87	16.814
524.21	17.415
524.55	17.934
524.89	18.413
525.23	18.859
525.57	19.239
525.91	19.574
526.25	19.873
526.58	20.139
526.92	20.345
527.26	20.507
527.60	20.605
527.94	20.667
528.28	20.687
528.62	20.696
528.96	20.659
529.30	20.615
529.64	20.573
529.97	20.504
530.31	20.427
530.65	20.372
530.99	20.329
531.33	20.313
531.67	20.310
532.01	20.322
532.35	20.327
532.68	20.336
533.02	20.330
533.36	20.289
533.70	20.253
534.04	20.220
534.38	20.177
534.71	20.146
535.05	20.124
535.39	20.086
535.73	20.095
536.07	20.153
536.41	20.290
536.74	20.474
537.08	20.719
537.42	20.969
537.76	21.210
538.10	21.494
538.43	21.741
538.77	21.971
539.11	22.204
539.45	22.387
539.79	22.557
540.12	22.690
540.46	22.766
540.80	22.820
541.14	22.838
541.47	22.837
541.81	22.785
542.15	22.725
542.49	22.645
542.82	22.515
543.16	22.422
543.50	22.319
543.84	22.199
544.17	22.144
544.51	22.061
544.85	22.072
545.18	22.051
545.52	22.031
545.86	22.020
546.20	21.978
546.53	21.986
546.87	21.984
547.21	21.942
547.54	21.929
547.88	21.908
548.22	21.961
548.55	21.953
548.89	22.036
549.23	22.103
549.56	22.233
549.90	22.358
550.24	22.446
550.57	22.526
550.91	22.673
551.25	22.826
551.58	22.915
551.92	23.012
552.26	23.081
552.59	23.110
552.93	23.157
553.27	23.153
553.60	23.182
553.94	23.255
554.27	23.338
554.61	23.372
554.95	23.410
555.28	23.518
555.62	23.621
555.95	23.690
556.29	23.800
556.63	23.933
556.96	24.035
557.30	24.175
557.63	24.268
557.97	24.299
558.31	24.390
558.64	24.412
558.98	24.413
559.31	24.443
559.65	24.504
559.98	24.569
560.32	24.592
560.65	24.664
560.99	24.745
561.33	24.827
561.66	24.926
562.00	24.991
562.33	25.059
562.67	25.171
563.00	25.255
563.34	25.343
563.67	25.401
564.01	25.482
564.34	25.495
564.68	25.504
565.01	25.497
565.35	25.522
565.68	25.528
566.02	25.547
566.35	25.521
566.69	25.471
567.02	25.429
567.36	25.406
567.69	25.360
568.03	25.387
568.36	25.349
568.69	25.328
569.03	25.299
569.36	25.272
569.70	25.266
570.03	25.268
570.37	25.243
570.70	25.202
571.04	25.141
571.37	25.132
571.70	25.046
572.04	24.981
572.37	24.928
572.71	24.863
573.04	24.832
573.37	24.730
573.71	24.631
574.04	24.560
574.38	24.478
574.71	24.394
575.04	24.241
575.38	24.163
575.71	24.059
576.05	23.931
576.38	23.806
576.71	23.637
577.05	23.531
577.38	23.387
577.71	23.254
578.05	23.186
578.38	23.075
578.71	23.008
579.05	22.903
579.38	22.852
579.71	22.744
580.05	22.681
580.38	22.623
580.71	22.530
581.05	22.510
581.38	22.419
581.71	22.283
582.05	22.217
582.38	22.167
582.71	22.092
583.04	22.029
583.38	22.047
583.71	22.036
584.04	22.023
584.38	22.013
584.71	22.014
585.04	22.104
585.37	22.163
585.71	22.261
586.04	22.304
586.37	22.382
586.70	22.430
587.04	22.469
587.37	22.450
587.70	22.462
588.03	22.511
588.37	22.510
588.70	22.463
589.03	22.415
589.36	22.332
589.69	22.308
590.03	22.208
590.36	22.155
590.69	22.089
591.02	22.051
591.35	22.009
591.69	21.973
592.02	21.948
592.35	21.936
592.68	21.958
593.01	21.992
593.35	21.993
593.68	22.039
594.01	22.026
594.34	22.062
594.67	22.090
595.00	22.144
595.34	22.152
595.67	22.167
596.00	22.151
596.33	22.102
596.66	22.015
596.99	21.921
597.32	21.831
597.65	21.759
597.99	21.630
598.32	21.523
598.65	21.357
598.98	21.247
599.31	21.157
599.64	21.127
599.97	21.135
600.30	21.154
600.63	21.177
600.96	21.229
601.30	21.263
601.63	21.266
601.96	21.282
602.29	21.332
602.62	21.338
602.95	21.327
603.28	21.271
603.61	21.191
603.94	21.066
604.27	20.943
604.60	20.786
604.93	20.646
605.26	20.521
605.59	20.394
605.92	20.215
606.25	20.131
606.58	19.989
606.91	19.899
607.24	19.802
607.57	19.764
607.90	19.647
608.23	19.542
608.56	19.439
608.89	19.313
609.22	19.163
609.55	19.006
609.88	18.785
610.21	18.579
610.54	18.299
610.87	18.107
611.20	17.866
611.53	17.694
611.86	17.493
612.19	17.302
612.52	17.155
612.85	17.010
613.18	16.851
613.51	16.710
613.84	16.599
614.17	16.481
614.49	16.301
614.82	16.167
615.15	16.027
615.48	15.902
615.81	15.761
616.14	15.610
616.47	15.515
616.80	15.446
617.13	15.355
617.46	15.203
617.78	15.125
618.11	15.018
618.44	14.887
618.77	14.811
619.10	14.720
619.43	14.633
619.76	14.557
620.09	14.447
620.41	14.309
620.74	14.218
621.07	14.158
621.40	14.161
621.73	14.217
622.06	14.302
622.38	14.339
622.71	14.433
623.04	14.516
623.37	14.616
623.70	14.677
624.02	14.785
624.35	14.894
624.68	15.024
625.01	15.092
625.34	15.136
625.66	15.142
625.99	15.143
626.32	15.092
626.65	15.052
626.98	15.025
627.30	15.005
627.63	14.962
627.96	14.892
628.29	14.785
628.61	14.705
628.94	14.592
629.27	14.534
629.60	14.482
629.92	14.467
630.25	14.413
630.58	14.370
630.91	14.299
631.23	14.227
631.56	14.150
631.89	14.083
632.21	13.960
632.54	13.896
632.87	13.794
633.19	13.686
633.52	13.508
633.85	13.356
634.18	13.125
634.50	12.903
634.83	12.675
635.16	12.411
635.48	12.230
635.81	12.022
636.14	11.756
636.46	11.476
636.79	11.178
637.11	10.915
