OOIBase32 Version 2.0.0.6 Data File
++++++++++++++++++++++++++++++++++++
Date: 01-22-2012, 21:37:42
User: Valued Ocean Optics Customer
Spectrometer Serial Number: USB2E2917
Spectrometer Channel: Master
Integration Time (msec): 4
Spectra Averaged: 10
Boxcar Smoothing: 5
Correct for Electrical Dark: Enabled
Time Normalized: Disabled
Dual-beam Reference: Disabled
Reference Channel: Master
Temperature: Not acquired
Spectrometer Type: S2000
ADC Type: USB2000
Number of Pixels in File: 2048
Graph Title: 
>>>>>Begin Spectral Data<<<<<
180.30	0.000
180.67	0.000
181.03	102.978
181.40	147.218
181.77	-2.482
182.14	-176.339
182.51	593.606
182.88	73.478
183.25	165.424
183.62	58.067
183.99	39.974
184.36	-13.976
184.73	165.427
185.10	2074.116
185.46	82.800
185.83	77.313
186.20	33.556
186.57	496.197
186.94	108.443
187.31	9.768
187.68	-1138.811
188.05	6.210
188.42	100.214
188.78	41.298
189.15	51.837
189.52	37.105
189.89	12.102
190.26	11.011
190.63	-9.527
191.00	-23.872
191.37	-27.423
191.73	-43.323
192.10	-95.825
192.47	-101.203
192.84	-253.642
193.21	-391.674
193.58	-305.947
193.94	-227.754
194.31	-111.108
194.68	-66.973
195.05	-80.956
195.42	-125.173
195.79	-127.306
196.15	-96.911
196.52	-70.532
196.89	-70.515
197.26	-78.510
197.63	-100.784
198.00	-142.404
198.36	-243.925
198.73	-304.368
199.10	-166.594
199.47	-54.899
199.84	-24.720
200.20	-65.686
200.57	-46.201
200.94	-14.109
201.31	2.849
201.68	4.046
202.04	5.497
202.41	10.930
202.78	17.489
203.15	24.496
203.51	30.401
203.88	26.090
204.25	21.868
204.62	26.378
204.98	15.654
205.35	8.301
205.72	-1.762
206.09	-35.602
206.46	-16.418
206.82	-52.996
207.19	-95.932
207.56	-145.946
207.92	-155.720
208.29	-95.688
208.66	-96.463
209.03	-104.973
209.39	-67.609
209.76	-47.182
210.13	-18.557
210.50	-27.188
210.86	-62.827
211.23	-86.761
211.60	-96.302
211.96	-103.856
212.33	-235.355
212.70	7853.215
213.07	635.938
213.43	586.996
213.80	2000.380
214.17	371.153
214.53	2392.371
214.90	-305.088
215.27	-146.919
215.63	-208.268
216.00	-130.493
216.37	-49.816
216.74	-41.387
217.10	-37.171
217.47	-37.041
217.84	-27.340
218.20	-25.780
218.57	-9.181
218.94	-14.403
219.30	-5.749
219.67	1.719
220.04	5.458
220.40	5.811
220.77	10.161
221.13	8.277
221.50	10.363
221.87	4.921
222.23	12.366
222.60	-0.566
222.97	-3.215
223.33	-12.858
223.70	-18.606
224.07	-20.020
224.43	-23.376
224.80	-14.466
225.16	-15.153
225.53	-12.270
225.90	-8.585
226.26	-7.691
226.63	-4.728
226.99	-4.175
227.36	-1.110
227.73	0.793
228.09	1.310
228.46	4.422
228.82	1.282
229.19	2.096
229.56	-0.108
229.92	0.321
230.29	-0.566
230.65	-0.134
231.02	-1.928
231.38	-2.670
231.75	-3.340
232.12	-3.919
232.48	-8.000
232.85	-6.323
233.21	-6.248
233.58	-3.504
233.94	-4.810
234.31	-4.889
234.68	-6.011
235.04	-1.970
235.41	-1.359
235.77	-2.986
236.14	-2.796
236.50	1.096
236.87	3.045
237.23	3.200
237.60	1.480
237.96	1.331
238.33	1.845
238.69	3.227
239.06	2.530
239.42	1.346
239.79	1.981
240.15	1.805
240.52	1.453
240.88	0.903
241.25	0.895
241.61	1.044
241.98	1.374
242.34	1.472
242.71	1.278
243.07	1.635
243.44	2.612
243.80	3.112
244.17	2.873
244.53	2.638
244.90	2.636
245.26	2.950
245.63	2.860
245.99	2.917
246.36	2.762
246.72	2.714
247.09	2.302
247.45	2.383
247.81	2.124
248.18	2.352
248.54	2.298
248.91	2.262
249.27	1.495
249.64	2.239
250.00	2.876
250.36	3.351
250.73	2.942
251.09	2.735
251.46	1.831
251.82	2.240
252.19	2.510
252.55	2.923
252.91	3.469
253.28	4.223
253.64	4.109
254.01	3.506
254.37	3.550
254.73	3.838
255.10	4.044
255.46	4.312
255.83	4.130
256.19	3.969
256.55	4.117
256.92	4.004
257.28	4.177
257.65	4.110
258.01	3.856
258.37	3.623
258.74	3.649
259.10	3.795
259.46	3.495
259.83	3.451
260.19	3.483
260.55	3.402
260.92	3.281
261.28	2.833
261.64	2.479
262.01	2.550
262.37	2.519
262.73	2.807
263.10	2.668
263.46	3.265
263.82	3.246
264.19	2.882
264.55	2.988
264.91	3.202
265.28	3.354
265.64	3.145
266.00	2.928
266.37	3.258
266.73	2.897
267.09	2.855
267.46	2.560
267.82	2.642
268.18	3.054
268.54	2.663
268.91	3.259
269.27	3.357
269.63	3.667
270.00	3.813
270.36	3.815
270.72	3.934
271.08	3.997
271.45	4.175
271.81	4.387
272.17	4.091
272.53	4.174
272.90	3.418
273.26	3.270
273.62	3.312
273.98	3.292
274.35	3.219
274.71	3.045
275.07	2.866
275.43	2.867
275.80	2.722
276.16	3.163
276.52	3.417
276.88	3.557
277.25	3.227
277.61	3.382
277.97	3.355
278.33	3.097
278.69	3.008
279.06	3.061
279.42	3.160
279.78	3.062
280.14	2.828
280.50	2.768
280.87	2.752
281.23	2.942
281.59	2.812
281.95	2.842
282.31	3.025
282.68	3.338
283.04	3.528
283.40	3.254
283.76	3.113
284.12	3.062
284.48	2.912
284.85	2.854
285.21	3.025
285.57	2.981
285.93	3.120
286.29	2.918
286.65	2.715
287.02	2.664
287.38	2.776
287.74	2.952
288.10	2.983
288.46	2.947
288.82	2.980
289.18	2.659
289.54	2.544
289.91	2.512
290.27	2.750
290.63	2.901
290.99	2.935
291.35	2.975
291.71	2.662
292.07	2.659
292.43	2.807
292.79	2.796
293.16	3.045
293.52	3.136
293.88	3.233
294.24	3.122
294.60	3.167
294.96	3.154
295.32	3.325
295.68	3.457
296.04	3.520
296.40	3.588
296.76	3.587
297.12	3.743
297.49	3.926
297.85	4.052
298.21	4.231
298.57	4.277
298.93	4.554
299.29	4.694
299.65	5.100
300.01	5.277
300.37	5.512
300.73	5.769
301.09	5.845
301.45	5.804
301.81	5.897
302.17	6.105
302.53	6.347
302.89	6.313
303.25	6.394
303.61	6.471
303.97	6.677
304.33	6.933
304.69	7.282
305.05	7.525
305.41	8.072
305.77	8.196
306.13	8.392
306.49	8.681
306.85	8.906
307.21	8.969
307.57	8.962
307.93	9.042
308.29	9.042
308.65	8.861
309.01	8.923
309.37	8.881
309.73	9.008
310.09	9.032
310.45	9.009
310.81	8.972
311.17	9.012
311.53	9.235
311.89	9.388
312.25	9.445
312.61	9.754
312.96	9.957
313.32	10.113
313.68	10.083
314.04	10.319
314.40	10.423
314.76	10.664
315.12	10.898
315.48	10.998
315.84	10.894
316.20	10.936
316.56	10.925
316.92	10.840
317.27	10.814
317.63	10.668
317.99	10.441
318.35	10.409
318.71	10.432
319.07	10.373
319.43	10.278
319.79	10.296
320.15	10.439
320.50	10.614
320.86	10.603
321.22	10.641
321.58	10.845
321.94	10.963
322.30	11.058
322.66	10.988
323.01	10.930
323.37	11.002
323.73	11.038
324.09	11.043
324.45	10.840
324.81	10.837
325.17	10.739
325.52	10.735
325.88	10.666
326.24	10.475
326.60	10.442
326.96	10.600
327.31	10.371
327.67	10.455
328.03	10.378
328.39	10.313
328.75	10.375
329.11	10.442
329.46	10.400
329.82	10.433
330.18	10.498
330.54	10.435
330.90	10.218
331.25	10.360
331.61	10.196
331.97	10.089
332.33	10.131
332.68	9.997
333.04	9.976
333.40	9.939
333.76	9.978
334.11	9.930
334.47	10.107
334.83	10.177
335.19	10.091
335.54	10.062
335.90	10.101
336.26	9.989
336.62	10.049
336.97	9.908
337.33	9.915
337.69	9.846
338.05	9.922
338.40	9.834
338.76	9.862
339.12	9.849
339.48	9.865
339.83	9.860
340.19	9.977
340.55	9.959
340.90	9.978
341.26	9.905
341.62	9.904
341.97	9.887
342.33	9.781
342.69	9.750
343.04	9.740
343.40	9.703
343.76	9.528
344.12	9.384
344.47	9.342
344.83	9.362
345.19	9.430
345.54	9.361
345.90	9.267
346.26	9.305
346.61	9.231
346.97	9.263
347.32	9.254
347.68	9.329
348.04	9.395
348.39	9.388
348.75	9.370
349.11	9.209
349.46	9.152
349.82	9.071
350.18	8.961
350.53	8.967
350.89	8.904
351.24	8.925
351.60	8.885
351.96	8.914
352.31	8.854
352.67	8.770
353.02	8.813
353.38	8.859
353.74	8.915
354.09	8.993
354.45	8.949
354.80	8.856
355.16	8.863
355.52	8.839
355.87	8.748
356.23	8.684
356.58	8.654
356.94	8.689
357.29	8.618
357.65	8.547
358.00	8.499
358.36	8.505
358.72	8.531
359.07	8.432
359.43	8.437
359.78	8.402
360.14	8.444
360.49	8.453
360.85	8.345
361.20	8.369
361.56	8.369
361.91	8.372
362.27	8.303
362.62	8.318
362.98	8.369
363.33	8.359
363.69	8.410
364.04	8.372
364.40	8.408
364.75	8.452
365.11	8.375
365.46	8.341
365.82	8.246
366.17	8.228
366.53	8.129
366.88	8.082
367.24	8.034
367.59	8.004
367.95	7.985
368.30	7.926
368.66	7.889
369.01	7.920
369.37	7.887
369.72	7.889
370.08	7.903
370.43	7.922
370.78	7.918
371.14	7.892
371.49	7.816
371.85	7.827
372.20	7.814
372.56	7.819
372.91	7.813
373.26	7.847
373.62	7.815
373.97	7.758
374.33	7.746
374.68	7.666
375.03	7.639
375.39	7.597
375.74	7.595
376.10	7.567
376.45	7.581
376.80	7.508
377.16	7.464
377.51	7.461
377.87	7.496
378.22	7.478
378.57	7.469
378.93	7.504
379.28	7.532
379.63	7.470
379.99	7.422
380.34	7.377
380.70	7.384
381.05	7.363
381.40	7.349
381.76	7.317
382.11	7.254
382.46	7.234
382.82	7.148
383.17	7.094
383.52	7.096
383.88	7.135
384.23	7.084
384.58	7.006
384.94	6.991
385.29	6.973
385.64	6.921
385.99	6.934
386.35	6.949
386.70	6.927
387.05	6.894
387.41	6.866
387.76	6.806
388.11	6.795
388.47	6.788
388.82	6.719
389.17	6.701
389.52	6.647
389.88	6.639
390.23	6.592
390.58	6.569
390.93	6.605
391.29	6.590
391.64	6.584
391.99	6.573
392.34	6.591
392.70	6.613
393.05	6.608
393.40	6.627
393.75	6.614
394.11	6.580
394.46	6.554
394.81	6.485
395.16	6.426
395.52	6.392
395.87	6.351
396.22	6.259
396.57	6.197
396.92	6.138
397.28	6.063
397.63	5.977
397.98	5.993
398.33	6.009
398.68	6.014
399.04	6.012
399.39	5.982
399.74	5.959
400.09	5.955
400.44	5.919
400.80	5.878
401.15	5.901
401.50	5.924
401.85	5.872
402.20	5.801
402.55	5.718
402.90	5.666
403.26	5.634
403.61	5.590
403.96	5.604
404.31	5.610
404.66	5.572
405.01	5.510
405.36	5.474
405.72	5.444
406.07	5.431
406.42	5.458
406.77	5.443
407.12	5.434
407.47	5.451
407.82	5.393
408.17	5.343
408.53	5.382
408.88	5.395
409.23	5.354
409.58	5.329
409.93	5.341
410.28	5.325
410.63	5.275
410.98	5.240
411.33	5.173
411.68	5.184
412.03	5.183
412.38	5.147
412.73	5.115
413.09	5.074
413.44	5.057
413.79	5.048
414.14	5.033
414.49	5.012
414.84	4.988
415.19	4.975
415.54	4.924
415.89	4.879
416.24	4.838
416.59	4.798
416.94	4.803
417.29	4.772
417.64	4.734
417.99	4.704
418.34	4.703
418.69	4.665
419.04	4.640
419.39	4.648
419.74	4.660
420.09	4.647
420.44	4.646
420.79	4.634
421.14	4.642
421.49	4.649
421.84	4.635
422.19	4.634
422.54	4.644
422.89	4.654
423.24	4.629
423.59	4.613
423.94	4.627
424.29	4.633
424.64	4.646
424.99	4.667
425.34	4.667
425.68	4.693
426.03	4.706
426.38	4.741
426.73	4.746
427.08	4.756
427.43	4.794
427.78	4.795
428.13	4.789
428.48	4.796
428.83	4.773
429.18	4.753
429.53	4.758
429.87	4.740
430.22	4.719
430.57	4.734
430.92	4.733
431.27	4.722
431.62	4.706
431.97	4.704
432.32	4.689
432.67	4.686
433.01	4.697
433.36	4.675
433.71	4.674
434.06	4.705
434.41	4.684
434.76	4.708
435.11	4.713
435.45	4.739
435.80	4.737
436.15	4.728
436.50	4.736
436.85	4.746
437.20	4.753
437.54	4.767
437.89	4.773
438.24	4.772
438.59	4.785
438.94	4.775
439.29	4.767
439.63	4.786
439.98	4.802
440.33	4.811
440.68	4.802
441.03	4.811
441.37	4.818
441.72	4.802
442.07	4.834
442.42	4.839
442.76	4.851
443.11	4.856
443.46	4.863
443.81	4.859
444.16	4.862
444.50	4.875
444.85	4.888
445.20	4.892
445.55	4.905
445.89	4.898
446.24	4.905
446.59	4.921
446.94	4.954
447.28	4.970
447.63	4.987
447.98	5.003
448.32	5.025
448.67	5.024
449.02	5.028
449.37	5.044
449.71	5.050
450.06	5.058
450.41	5.073
450.75	5.047
451.10	5.055
451.45	5.061
451.79	5.070
452.14	5.085
452.49	5.106
452.84	5.127
453.18	5.120
453.53	5.144
453.88	5.145
454.22	5.120
454.57	5.129
454.92	5.119
455.26	5.123
455.61	5.109
455.95	5.081
456.30	5.083
456.65	5.079
456.99	5.082
457.34	5.077
457.69	5.079
458.03	5.096
458.38	5.125
458.73	5.153
459.07	5.175
459.42	5.188
459.76	5.206
460.11	5.227
460.46	5.244
460.80	5.250
461.15	5.280
461.49	5.291
461.84	5.308
462.19	5.311
462.53	5.306
462.88	5.312
463.22	5.339
463.57	5.366
463.91	5.369
464.26	5.409
464.61	5.441
464.95	5.448
465.30	5.461
465.64	5.485
465.99	5.492
466.33	5.502
466.68	5.500
467.02	5.506
467.37	5.514
467.71	5.515
468.06	5.503
468.41	5.487
468.75	5.478
469.10	5.497
469.44	5.491
469.79	5.489
470.13	5.487
470.48	5.513
470.82	5.506
471.17	5.493
471.51	5.496
471.86	5.498
472.20	5.497
472.55	5.503
472.89	5.494
473.23	5.466
473.58	5.433
473.92	5.421
474.27	5.384
474.61	5.368
474.96	5.359
475.30	5.319
475.65	5.287
475.99	5.291
476.34	5.264
476.68	5.228
477.02	5.229
477.37	5.230
477.71	5.215
478.06	5.197
478.40	5.188
478.75	5.193
479.09	5.200
479.43	5.217
479.78	5.234
480.12	5.268
480.47	5.320
480.81	5.353
481.15	5.406
481.50	5.462
481.84	5.530
482.19	5.594
482.53	5.641
482.87	5.662
483.22	5.628
483.56	5.560
483.90	5.490
484.25	5.422
484.59	5.390
484.94	5.328
485.28	5.267
485.62	5.197
485.97	5.122
486.31	5.054
486.65	5.021
487.00	5.039
487.34	5.096
487.68	5.146
488.03	5.190
488.37	5.183
488.71	5.200
489.06	5.204
489.40	5.198
489.74	5.202
490.09	5.209
490.43	5.217
490.77	5.226
491.11	5.236
491.46	5.259
491.80	5.251
492.14	5.277
492.49	5.287
492.83	5.298
493.17	5.314
493.51	5.313
493.86	5.310
494.20	5.302
494.54	5.304
494.88	5.323
495.23	5.326
495.57	5.351
495.91	5.360
496.25	5.375
496.60	5.385
496.94	5.398
497.28	5.420
497.62	5.449
497.97	5.496
498.31	5.524
498.65	5.531
498.99	5.559
499.33	5.592
499.68	5.612
500.02	5.660
500.36	5.695
500.70	5.739
501.04	5.774
501.39	5.802
501.73	5.824
502.07	5.845
502.41	5.893
502.75	5.920
503.09	5.953
503.44	5.989
503.78	5.992
504.12	6.021
504.46	6.054
504.80	6.096
505.14	6.135
505.49	6.163
505.83	6.199
506.17	6.220
506.51	6.260
506.85	6.278
507.19	6.299
507.53	6.333
507.87	6.358
508.22	6.386
508.56	6.418
508.90	6.440
509.24	6.472
509.58	6.519
509.92	6.550
510.26	6.572
510.60	6.615
510.94	6.650
511.28	6.689
511.63	6.742
511.97	6.779
512.31	6.796
512.65	6.829
512.99	6.870
513.33	6.895
513.67	6.924
514.01	6.950
514.35	6.984
514.69	7.012
515.03	7.042
515.37	7.036
515.71	7.045
516.05	7.065
516.39	7.080
516.73	7.079
517.07	7.085
517.41	7.095
517.75	7.111
518.09	7.113
518.43	7.124
518.77	7.136
519.11	7.148
519.45	7.162
519.79	7.167
520.13	7.177
520.47	7.194
520.81	7.218
521.15	7.222
521.49	7.220
521.83	7.205
522.17	7.189
522.51	7.169
522.85	7.185
523.19	7.184
523.53	7.189
523.87	7.201
524.21	7.207
524.55	7.214
524.89	7.224
525.23	7.251
525.57	7.276
525.91	7.292
526.25	7.303
526.58	7.308
526.92	7.326
527.26	7.347
527.60	7.346
527.94	7.351
528.28	7.345
528.62	7.344
528.96	7.329
529.30	7.307
529.64	7.293
529.97	7.283
530.31	7.271
530.65	7.238
530.99	7.211
531.33	7.192
531.67	7.176
532.01	7.169
532.35	7.168
532.68	7.158
533.02	7.162
533.36	7.154
533.70	7.145
534.04	7.132
534.38	7.131
534.71	7.100
535.05	7.091
535.39	7.074
535.73	7.057
536.07	7.025
536.41	7.001
536.74	6.968
537.08	6.954
537.42	6.955
537.76	6.948
538.10	6.933
538.43	6.936
538.77	6.939
539.11	6.949
539.45	6.944
539.79	6.947
540.12	6.948
540.46	6.958
540.80	6.948
541.14	6.932
541.47	6.921
541.81	6.913
542.15	6.898
542.49	6.875
542.82	6.844
543.16	6.833
543.50	6.828
543.84	6.804
544.17	6.769
544.51	6.777
544.85	6.767
545.18	6.762
545.52	6.743
545.86	6.750
546.20	6.753
546.53	6.757
546.87	6.741
547.21	6.719
547.54	6.729
547.88	6.756
548.22	6.757
548.55	6.756
548.89	6.729
549.23	6.739
549.56	6.729
549.90	6.726
550.24	6.704
550.57	6.698
550.91	6.682
551.25	6.675
551.58	6.656
551.92	6.637
552.26	6.621
552.59	6.637
552.93	6.643
553.27	6.644
553.60	6.645
553.94	6.651
554.27	6.656
554.61	6.668
554.95	6.687
555.28	6.694
555.62	6.707
555.95	6.732
556.29	6.742
556.63	6.752
556.96	6.741
557.30	6.764
557.63	6.764
557.97	6.761
558.31	6.760
558.64	6.739
558.98	6.743
559.31	6.743
559.65	6.729
559.98	6.732
560.32	6.707
560.65	6.714
560.99	6.685
561.33	6.696
561.66	6.701
562.00	6.708
562.33	6.698
562.67	6.700
563.00	6.703
563.34	6.726
563.67	6.724
564.01	6.727
564.34	6.743
564.68	6.770
565.01	6.778
565.35	6.797
565.68	6.799
566.02	6.824
566.35	6.851
566.69	6.835
567.02	6.818
567.36	6.834
567.69	6.832
568.03	6.823
568.36	6.824
568.69	6.859
569.03	6.866
569.36	6.893
569.70	6.892
570.03	6.877
570.37	6.907
570.70	6.912
571.04	6.924
571.37	6.939
571.70	6.960
572.04	6.957
572.37	6.927
572.71	6.933
573.04	6.916
573.37	6.939
573.71	6.960
574.04	6.971
574.38	7.014
574.71	7.026
575.04	7.067
575.38	7.087
575.71	7.103
576.05	7.133
576.38	7.143
576.71	7.188
577.05	7.218
577.38	7.248
577.71	7.273
578.05	7.274
578.38	7.286
578.71	7.283
579.05	7.268
579.38	7.279
579.71	7.306
580.05	7.324
580.38	7.313
580.71	7.293
581.05	7.315
581.38	7.299
581.71	7.301
582.05	7.295
582.38	7.280
582.71	7.302
583.04	7.305
583.38	7.313
583.71	7.325
584.04	7.353
584.38	7.373
584.71	7.354
585.04	7.353
585.37	7.356
585.71	7.364
586.04	7.405
586.37	7.419
586.70	7.431
587.04	7.440
587.37	7.443
587.70	7.421
588.03	7.423
588.37	7.437
588.70	7.488
589.03	7.501
589.36	7.520
589.69	7.521
590.03	7.536
590.36	7.549
590.69	7.526
591.02	7.532
591.35	7.546
591.69	7.532
592.02	7.537
592.35	7.559
592.68	7.586
593.01	7.595
593.35	7.597
593.68	7.597
594.01	7.619
594.34	7.654
594.67	7.665
595.00	7.669
595.34	7.689
595.67	7.706
596.00	7.697
596.33	7.718
596.66	7.737
596.99	7.764
597.32	7.809
597.65	7.809
597.99	7.814
598.32	7.818
598.65	7.833
598.98	7.847
599.31	7.852
599.64	7.850
599.97	7.832
600.30	7.835
600.63	7.838
600.96	7.850
601.30	7.851
601.63	7.851
601.96	7.874
602.29	7.913
602.62	7.945
602.95	7.959
603.28	7.963
603.61	7.961
603.94	7.969
604.27	7.988
604.60	7.973
604.93	8.009
605.26	8.028
605.59	8.044
605.92	8.048
606.25	8.070
606.58	8.083
606.91	8.096
607.24	8.128
607.57	8.134
607.90	8.140
608.23	8.142
608.56	8.142
608.89	8.150
609.22	8.146
609.55	8.148
609.88	8.156
610.21	8.202
610.54	8.220
610.87	8.204
611.20	8.240
611.53	8.238
611.86	8.269
612.19	8.262
612.52	8.251
612.85	8.283
613.18	8.259
613.51	8.221
613.84	8.168
614.17	8.185
614.49	8.187
614.82	8.198
615.15	8.230
615.48	8.238
615.81	8.271
616.14	8.282
616.47	8.268
616.80	8.334
617.13	8.338
617.46	8.364
617.78	8.316
618.11	8.355
618.44	8.330
618.77	8.320
619.10	8.284
619.43	8.289
619.76	8.276
620.09	8.256
620.41	8.220
620.74	8.248
621.07	8.217
621.40	8.281
621.73	8.260
622.06	8.258
622.38	8.264
622.71	8.292
623.04	8.268
623.37	8.290
623.70	8.290
624.02	8.292
624.35	8.285
624.68	8.327
625.01	8.304
625.34	8.294
625.66	8.265
625.99	8.253
626.32	8.251
626.65	8.295
626.98	8.313
627.30	8.344
627.63	8.326
627.96	8.338
628.29	8.335
628.61	8.325
628.94	8.334
629.27	8.343
629.60	8.320
629.92	8.325
630.25	8.276
630.58	8.263
630.91	8.229
631.23	8.227
631.56	8.190
631.89	8.133
632.21	8.149
632.54	8.164
632.87	8.184
633.19	8.203
633.52	8.156
633.85	8.136
634.18	8.114
634.50	8.129
634.83	8.125
635.16	8.132
635.48	8.170
635.81	8.144
636.14	8.123
636.46	8.128
636.79	8.131
637.11	8.165
637.44	8.158
637.77	8.144
638.09	8.122
638.42	8.097
638.75	8.107
639.07	8.071
639.40	8.049
639.73	8.086
640.05	8.002
640.38	7.983
640.70	7.956
641.03	7.983
641.36	7.999
641.68	8.003
642.01	8.041
642.33	8.083
642.66	8.053
642.98	8.058
643.31	7.992
643.64	8.058
643.96	8.047
644.29	8.043
644.61	8.021
644.94	8.014
645.26	8.058
645.59	8.038
645.91	7.962
646.24	7.990
646.56	8.012
646.89	8.054
647.22	8.076
647.54	8.056
647.87	8.082
648.19	8.077
648.52	8.044
648.84	7.968
649.17	7.976
649.49	7.967
649.82	7.951
650.14	7.933
650.47	7.915
650.79	7.909
651.11	7.894
651.44	7.848
651.76	7.904
652.09	7.967
652.41	8.018
652.74	7.983
653.06	7.991
653.39	7.986
653.71	7.989
654.04	7.983
654.36	7.918
654.68	7.911
655.01	7.927
655.33	7.893
655.66	7.793
655.98	7.764
656.30	7.734
