OOIBase32 Version 2.0.0.6 Data File
++++++++++++++++++++++++++++++++++++
Date: 01-19-2012, 17:33:47
User: Valued Ocean Optics Customer
Spectrometer Serial Number: USB2E2917
Spectrometer Channel: Master
Integration Time (msec): 6
Spectra Averaged: 10
Boxcar Smoothing: 5
Correct for Electrical Dark: Enabled
Time Normalized: Disabled
Dual-beam Reference: Disabled
Reference Channel: Master
Temperature: Not acquired
Spectrometer Type: S2000
ADC Type: USB2000
Number of Pixels in File: 2048
Graph Title: 
>>>>>Begin Spectral Data<<<<<
180.30	0.000
180.67	0.000
181.03	54.537
181.40	-71.810
181.77	28.289
182.14	-49.744
182.51	137.607
182.88	87.961
183.25	171.146
183.62	-33.938
183.99	-57.958
184.36	103.798
184.73	43.159
185.10	74.981
185.46	93.981
185.83	33.351
186.20	54.608
186.57	2.555
186.94	30.789
187.31	18.118
187.68	23.650
188.05	-41.358
188.42	-26.509
188.78	-30.286
189.15	-9.819
189.52	9.854
189.89	16.330
190.26	18.971
190.63	26.208
191.00	29.765
191.37	28.905
191.73	32.499
192.10	24.703
192.47	31.619
192.84	40.039
193.21	22.527
193.58	2.456
193.94	-19.283
194.31	-19.935
194.68	-28.366
195.05	-37.600
195.42	-40.581
195.79	-50.034
196.15	-35.593
196.52	-33.317
196.89	-43.645
197.26	-39.369
197.63	-36.702
198.00	-36.046
198.36	-22.750
198.73	-17.283
199.10	3.385
199.47	5.159
199.84	14.394
200.20	19.397
200.57	18.436
200.94	16.234
201.31	13.967
201.68	20.617
202.04	23.256
202.41	13.141
202.78	12.956
203.15	3.176
203.51	2.790
203.88	-11.457
204.25	-2.909
204.62	2.495
204.98	-1.628
205.35	1.426
205.72	-13.390
206.09	-27.063
206.46	-6.800
206.82	-4.170
207.19	-1.106
207.56	-13.211
207.92	-1.247
208.29	-30.674
208.66	-49.264
209.03	-43.230
209.39	-47.336
209.76	-26.321
210.13	-5.469
210.50	-4.916
210.86	7.664
211.23	21.016
211.60	28.883
211.96	28.917
212.33	34.182
212.70	37.505
213.07	36.907
213.43	42.726
213.80	37.545
214.17	33.293
214.53	29.496
214.90	17.846
215.27	10.612
215.63	12.045
216.00	2.937
216.37	-2.964
216.74	6.569
217.10	7.246
217.47	1.100
217.84	3.311
218.20	8.785
218.57	8.000
218.94	7.214
219.30	-0.959
219.67	-2.934
220.04	0.047
220.40	5.109
220.77	-3.249
221.13	-7.122
221.50	-12.362
221.87	-11.037
222.23	-13.054
222.60	-8.078
222.97	-7.185
223.33	-2.573
223.70	-3.451
224.07	-2.810
224.43	-2.879
224.80	-1.831
225.16	0.947
225.53	2.893
225.90	3.504
226.26	4.353
226.63	3.395
226.99	3.966
227.36	3.712
227.73	3.991
228.09	3.359
228.46	4.541
228.82	5.011
229.19	5.395
229.56	4.648
229.92	3.918
230.29	2.372
230.65	3.232
231.02	2.395
231.38	2.025
231.75	1.071
232.12	1.548
232.48	0.805
232.85	1.764
233.21	1.151
233.58	1.334
233.94	0.650
234.31	2.624
234.68	-0.201
235.04	-0.166
235.41	0.470
235.77	-0.292
236.14	0.704
236.50	0.154
236.87	-0.165
237.23	0.403
237.60	1.478
237.96	2.331
238.33	2.021
238.69	3.121
239.06	2.975
239.42	2.733
239.79	3.218
240.15	3.479
240.52	3.866
240.88	3.489
241.25	3.377
241.61	3.343
241.98	3.174
242.34	3.242
242.71	3.344
243.07	3.219
243.44	3.239
243.80	3.464
244.17	3.315
244.53	3.518
244.90	3.569
245.26	3.345
245.63	3.380
245.99	3.451
246.36	3.573
246.72	3.437
247.09	3.829
247.45	3.941
247.81	3.639
248.18	3.552
248.54	3.306
248.91	3.288
249.27	3.453
249.64	3.319
250.00	3.438
250.36	3.184
250.73	3.125
251.09	3.014
251.46	3.205
251.82	3.465
252.19	3.512
252.55	3.594
252.91	3.492
253.28	3.896
253.64	4.110
254.01	4.406
254.37	4.354
254.73	4.737
255.10	4.515
255.46	4.317
255.83	4.162
256.19	4.101
256.55	4.045
256.92	4.086
257.28	3.555
257.65	3.281
258.01	3.178
258.37	3.325
258.74	3.271
259.10	3.131
259.46	3.058
259.83	3.251
260.19	3.229
260.55	3.183
260.92	2.929
261.28	3.089
261.64	3.228
262.01	3.367
262.37	3.211
262.73	3.381
263.10	3.689
263.46	3.782
263.82	3.540
264.19	3.365
264.55	3.303
264.91	3.518
265.28	3.842
265.64	3.941
266.00	3.694
266.37	3.512
266.73	3.342
267.09	3.400
267.46	3.269
267.82	3.307
268.18	3.191
268.54	3.216
268.91	3.202
269.27	3.011
269.63	2.853
270.00	2.831
270.36	2.935
270.72	2.849
271.08	2.675
271.45	2.749
271.81	2.822
272.17	3.132
272.53	3.149
272.90	3.236
273.26	3.150
273.62	3.154
273.98	3.295
274.35	3.403
274.71	3.584
275.07	3.640
275.43	3.370
275.80	3.252
276.16	3.154
276.52	3.110
276.88	2.990
277.25	3.133
277.61	3.259
277.97	3.093
278.33	2.902
278.69	2.652
279.06	2.698
279.42	3.058
279.78	3.034
280.14	2.907
280.50	3.077
280.87	3.285
281.23	3.344
281.59	3.314
281.95	3.514
282.31	3.657
282.68	3.843
283.04	3.592
283.40	3.473
283.76	3.528
284.12	3.703
284.48	3.570
284.85	3.364
285.21	3.201
285.57	3.251
285.93	3.090
286.29	2.921
286.65	2.974
287.02	3.199
287.38	3.182
287.74	3.239
288.10	3.208
288.46	3.244
288.82	3.443
289.18	3.488
289.54	3.370
289.91	3.411
290.27	3.521
290.63	3.462
290.99	3.496
291.35	3.585
291.71	3.605
292.07	3.387
292.43	3.299
292.79	3.223
293.16	3.235
293.52	3.157
293.88	3.218
294.24	3.338
294.60	3.298
294.96	3.297
295.32	3.294
295.68	3.154
296.04	3.360
296.40	3.445
296.76	3.381
297.12	3.479
297.49	3.682
297.85	3.681
298.21	3.672
298.57	3.617
298.93	3.586
299.29	3.691
299.65	3.717
300.01	3.683
300.37	3.658
300.73	3.755
301.09	3.616
301.45	3.502
301.81	3.273
302.17	3.405
302.53	3.329
302.89	3.332
303.25	3.231
303.61	3.080
303.97	2.993
304.33	2.910
304.69	2.855
305.05	2.946
305.41	3.053
305.77	3.327
306.13	3.153
306.49	3.350
306.85	3.351
307.21	3.362
307.57	3.764
307.93	3.879
308.29	4.013
308.65	4.074
309.01	4.116
309.37	4.080
309.73	4.042
310.09	4.076
310.45	4.075
310.81	4.054
311.17	4.227
311.53	4.093
311.89	3.954
312.25	3.851
312.61	3.963
312.96	3.973
313.32	4.125
313.68	4.033
314.04	3.935
314.40	3.996
314.76	4.110
315.12	3.913
315.48	3.825
315.84	3.940
316.20	4.088
316.56	4.033
316.92	4.146
317.27	3.894
317.63	4.027
317.99	4.196
318.35	4.116
318.71	4.076
319.07	4.096
319.43	4.226
319.79	4.213
320.15	4.252
320.50	4.339
320.86	4.229
321.22	4.463
321.58	4.460
321.94	4.411
322.30	4.426
322.66	4.552
323.01	4.661
323.37	4.694
323.73	4.769
324.09	4.712
324.45	4.543
324.81	4.579
325.17	4.359
325.52	4.376
325.88	4.325
326.24	4.436
326.60	4.348
326.96	4.316
327.31	4.276
327.67	4.239
328.03	4.241
328.39	4.367
328.75	4.297
329.11	4.315
329.46	4.304
329.82	4.418
330.18	4.349
330.54	4.336
330.90	4.321
331.25	4.337
331.61	4.455
331.97	4.462
332.33	4.336
332.68	4.414
333.04	4.587
333.40	4.600
333.76	4.600
334.11	4.528
334.47	4.616
334.83	4.651
335.19	4.693
335.54	4.642
335.90	4.712
336.26	4.765
336.62	4.750
336.97	4.738
337.33	4.736
337.69	4.748
338.05	4.838
338.40	4.804
338.76	4.714
339.12	4.720
339.48	4.706
339.83	4.725
340.19	4.795
340.55	4.883
340.90	4.844
341.26	4.974
341.62	4.968
341.97	4.968
342.33	4.956
342.69	5.007
343.04	5.069
343.40	5.151
343.76	5.099
344.12	5.087
344.47	4.974
344.83	5.082
345.19	5.035
345.54	5.101
345.90	5.077
346.26	5.119
346.61	5.221
346.97	5.122
347.32	5.072
347.68	5.118
348.04	5.169
348.39	5.253
348.75	5.147
349.11	5.213
349.46	5.244
349.82	5.271
350.18	5.243
350.53	5.249
350.89	5.301
351.24	5.323
351.60	5.360
351.96	5.325
352.31	5.411
352.67	5.575
353.02	5.564
353.38	5.570
353.74	5.642
354.09	5.734
354.45	5.700
354.80	5.777
355.16	5.835
355.52	5.852
355.87	5.879
356.23	5.869
356.58	5.829
356.94	5.779
357.29	5.762
357.65	5.776
358.00	5.752
358.36	5.786
358.72	5.748
359.07	5.689
359.43	5.665
359.78	5.701
360.14	5.645
360.49	5.736
360.85	5.814
361.20	5.864
361.56	5.898
361.91	5.938
362.27	5.924
362.62	5.969
362.98	6.046
363.33	6.097
363.69	6.128
364.04	6.185
364.40	6.125
364.75	6.124
365.11	6.118
365.46	6.146
365.82	6.197
366.17	6.229
366.53	6.282
366.88	6.260
367.24	6.287
367.59	6.311
367.95	6.374
368.30	6.454
368.66	6.477
369.01	6.494
369.37	6.562
369.72	6.567
370.08	6.588
370.43	6.547
370.78	6.601
371.14	6.628
371.49	6.639
371.85	6.681
372.20	6.623
372.56	6.678
372.91	6.712
373.26	6.696
373.62	6.680
373.97	6.769
374.33	6.827
374.68	6.837
375.03	6.846
375.39	6.846
375.74	6.828
376.10	6.872
376.45	6.876
376.80	6.916
377.16	6.936
377.51	6.957
377.87	6.935
378.22	6.933
378.57	6.947
378.93	6.948
379.28	7.022
379.63	7.016
379.99	7.041
380.34	7.070
380.70	7.043
381.05	7.063
381.40	7.118
381.76	7.112
382.11	7.101
382.46	7.133
382.82	7.173
383.17	7.105
383.52	7.130
383.88	7.146
384.23	7.089
384.58	7.163
384.94	7.119
385.29	7.118
385.64	7.141
385.99	7.209
386.35	7.203
386.70	7.223
387.05	7.276
387.41	7.301
387.76	7.357
388.11	7.433
388.47	7.431
388.82	7.451
389.17	7.466
389.52	7.471
389.88	7.455
390.23	7.513
390.58	7.515
390.93	7.534
391.29	7.536
391.64	7.500
391.99	7.490
392.34	7.483
392.70	7.533
393.05	7.529
393.40	7.547
393.75	7.594
394.11	7.586
394.46	7.591
394.81	7.580
395.16	7.593
395.52	7.607
395.87	7.651
396.22	7.674
396.57	7.717
396.92	7.758
397.28	7.820
397.63	7.823
397.98	7.823
398.33	7.869
398.68	7.909
399.04	7.948
399.39	7.975
399.74	7.903
400.09	7.887
400.44	7.867
400.80	7.871
401.15	7.837
401.50	7.840
401.85	7.901
402.20	7.873
402.55	7.879
402.90	7.872
403.26	7.893
403.61	7.970
403.96	8.000
404.31	8.041
404.66	8.072
405.01	8.125
405.36	8.168
405.72	8.161
406.07	8.196
406.42	8.211
406.77	8.245
407.12	8.235
407.47	8.269
407.82	8.288
408.17	8.276
408.53	8.272
408.88	8.259
409.23	8.217
409.58	8.187
409.93	8.194
410.28	8.226
410.63	8.216
410.98	8.242
411.33	8.225
411.68	8.219
412.03	8.224
412.38	8.224
412.73	8.232
413.09	8.269
413.44	8.262
413.79	8.269
414.14	8.244
414.49	8.252
414.84	8.223
415.19	8.199
415.54	8.199
415.89	8.178
416.24	8.175
416.59	8.167
416.94	8.154
417.29	8.175
417.64	8.154
417.99	8.143
418.34	8.118
418.69	8.128
419.04	8.161
419.39	8.160
419.74	8.177
420.09	8.183
420.44	8.198
420.79	8.202
421.14	8.213
421.49	8.244
421.84	8.284
422.19	8.323
422.54	8.341
422.89	8.345
423.24	8.373
423.59	8.389
423.94	8.435
424.29	8.468
424.64	8.530
424.99	8.561
425.34	8.592
425.68	8.631
426.03	8.688
426.38	8.740
426.73	8.794
427.08	8.832
427.43	8.888
427.78	8.886
428.13	8.906
428.48	8.911
428.83	8.940
429.18	8.944
429.53	8.925
429.87	8.913
430.22	8.890
430.57	8.886
430.92	8.871
431.27	8.866
431.62	8.863
431.97	8.854
432.32	8.857
432.67	8.886
433.01	8.906
433.36	8.918
433.71	8.918
434.06	8.924
434.41	8.941
434.76	8.976
435.11	9.014
435.45	9.013
435.80	9.026
436.15	9.033
436.50	8.996
436.85	9.002
437.20	9.021
437.54	9.029
437.89	9.062
438.24	9.061
438.59	9.063
438.94	9.046
439.29	9.068
439.63	9.068
439.98	9.072
440.33	9.083
440.68	9.088
441.03	9.080
441.37	9.100
441.72	9.110
442.07	9.119
442.42	9.126
442.76	9.125
443.11	9.137
443.46	9.159
443.81	9.182
444.16	9.194
444.50	9.196
444.85	9.236
445.20	9.233
445.55	9.257
445.89	9.292
446.24	9.312
446.59	9.358
446.94	9.396
447.28	9.417
447.63	9.457
447.98	9.507
448.32	9.580
448.67	9.587
449.02	9.634
449.37	9.662
449.71	9.674
450.06	9.709
450.41	9.715
450.75	9.739
451.10	9.785
451.45	9.771
451.79	9.785
452.14	9.785
452.49	9.804
452.84	9.833
453.18	9.837
453.53	9.861
453.88	9.869
454.22	9.884
454.57	9.889
454.92	9.885
455.26	9.888
455.61	9.905
455.95	9.881
456.30	9.888
456.65	9.889
456.99	9.900
457.34	9.909
457.69	9.923
458.03	9.931
458.38	9.947
458.73	9.959
459.07	9.988
459.42	10.000
459.76	10.055
460.11	10.095
460.46	10.133
460.80	10.165
461.15	10.208
461.49	10.231
461.84	10.261
462.19	10.297
462.53	10.325
462.88	10.365
463.22	10.396
463.57	10.425
463.91	10.428
464.26	10.444
464.61	10.473
464.95	10.491
465.30	10.531
465.64	10.548
465.99	10.568
466.33	10.588
466.68	10.600
467.02	10.610
467.37	10.601
467.71	10.621
468.06	10.640
468.41	10.640
468.75	10.637
469.10	10.641
469.44	10.672
469.79	10.676
470.13	10.715
470.48	10.731
470.82	10.754
471.17	10.806
471.51	10.823
471.86	10.832
472.20	10.860
472.55	10.876
472.89	10.889
473.23	10.902
473.58	10.916
473.92	10.898
474.27	10.899
474.61	10.906
474.96	10.897
475.30	10.921
475.65	10.934
475.99	10.949
476.34	10.961
476.68	10.982
477.02	10.986
477.37	10.998
477.71	11.022
478.06	11.028
478.40	11.032
478.75	11.067
479.09	11.113
479.43	11.298
479.78	11.557
480.12	11.820
480.47	12.084
480.81	12.364
481.15	12.640
481.50	12.905
481.84	13.225
482.19	13.571
482.53	13.908
482.87	14.188
483.22	14.261
483.56	14.174
483.90	14.010
484.25	13.782
484.59	13.508
484.94	13.192
485.28	12.864
485.62	12.481
485.97	12.084
486.31	11.692
486.65	11.378
487.00	11.170
487.34	11.058
487.68	11.021
488.03	11.027
488.37	11.051
488.71	11.105
489.06	11.160
489.40	11.221
489.74	11.270
490.09	11.346
490.43	11.391
490.77	11.456
491.11	11.515
491.46	11.540
491.80	11.569
492.14	11.589
492.49	11.605
492.83	11.632
493.17	11.652
493.51	11.676
493.86	11.688
494.20	11.715
494.54	11.738
494.88	11.755
495.23	11.789
495.57	11.812
495.91	11.840
496.25	11.855
496.60	11.874
496.94	11.893
497.28	11.931
497.62	11.956
497.97	11.987
498.31	12.022
498.65	12.052
498.99	12.088
499.33	12.103
499.68	12.132
500.02	12.172
500.36	12.217
500.70	12.256
501.04	12.260
501.39	12.297
501.73	12.326
502.07	12.360
502.41	12.384
502.75	12.403
503.09	12.427
503.44	12.418
503.78	12.431
504.12	12.418
504.46	12.436
504.80	12.470
505.14	12.463
505.49	12.471
505.83	12.466
506.17	12.476
506.51	12.489
506.85	12.505
507.19	12.542
507.53	12.557
507.87	12.583
508.22	12.594
508.56	12.602
508.90	12.626
509.24	12.650
509.58	12.699
509.92	12.738
510.26	12.766
510.60	12.799
510.94	12.824
511.28	12.861
511.63	12.914
511.97	12.954
512.31	13.016
512.65	13.061
512.99	13.101
513.33	13.097
513.67	13.103
514.01	13.118
514.35	13.140
514.69	13.158
515.03	13.161
515.37	13.162
515.71	13.167
516.05	13.165
516.39	13.184
516.73	13.194
517.07	13.215
517.41	13.241
517.75	13.257
518.09	13.285
518.43	13.320
518.77	13.367
519.11	13.400
519.45	13.429
519.79	13.468
520.13	13.497
520.47	13.521
520.81	13.557
521.15	13.576
521.49	13.606
521.83	13.610
522.17	13.607
522.51	13.606
522.85	13.591
523.19	13.600
523.53	13.627
523.87	13.690
524.21	13.798
524.55	13.950
524.89	14.100
525.23	14.258
525.57	14.423
525.91	14.588
526.25	14.748
526.58	14.918
526.92	15.077
527.26	15.176
527.60	15.170
527.94	15.054
528.28	14.836
528.62	14.574
528.96	14.308
529.30	14.171
529.64	14.025
529.97	13.868
530.31	13.706
530.65	13.540
530.99	13.425
531.33	13.407
531.67	13.494
532.01	13.651
532.35	13.858
532.68	14.054
533.02	14.080
533.36	14.106
533.70	14.117
534.04	14.132
534.38	14.143
534.71	14.151
535.05	14.161
535.39	14.160
535.73	14.155
536.07	14.154
536.41	14.167
536.74	14.177
537.08	14.187
537.42	14.225
537.76	14.251
538.10	14.293
538.43	14.322
538.77	14.346
539.11	14.362
539.45	14.404
539.79	14.430
540.12	14.453
540.46	14.452
540.80	14.458
541.14	14.444
541.47	14.434
541.81	14.423
542.15	14.413
542.49	14.410
542.82	14.425
543.16	14.405
543.50	14.406
543.84	14.400
544.17	14.430
544.51	14.454
544.85	14.482
545.18	14.492
545.52	14.496
545.86	14.527
546.20	14.578
546.53	14.611
546.87	14.664
547.21	14.702
547.54	14.742
547.88	14.774
548.22	14.795
548.55	14.837
548.89	14.899
549.23	14.938
549.56	14.974
549.90	14.980
550.24	15.001
550.57	15.010
550.91	15.034
551.25	15.040
551.58	15.066
551.92	15.089
552.26	15.127
552.59	15.133
552.93	15.167
553.27	15.208
553.60	15.234
553.94	15.268
554.27	15.310
554.61	15.335
554.95	15.357
555.28	15.374
555.62	15.405
555.95	15.405
556.29	15.436
556.63	15.442
556.96	15.456
557.30	15.466
557.63	15.454
557.97	15.445
558.31	15.451
558.64	15.495
558.98	15.526
559.31	15.533
559.65	15.547
559.98	15.543
560.32	15.601
560.65	15.580
560.99	15.565
561.33	15.581
561.66	15.585
562.00	15.562
562.33	15.545
562.67	15.519
563.00	15.502
563.34	15.487
563.67	15.488
564.01	15.446
564.34	15.440
564.68	15.443
565.01	15.423
565.35	15.409
565.68	15.431
566.02	15.424
566.35	15.434
566.69	15.456
567.02	15.466
567.36	15.478
567.69	15.490
568.03	15.497
568.36	15.523
568.69	15.529
569.03	15.528
569.36	15.511
569.70	15.517
570.03	15.489
570.37	15.478
570.70	15.476
571.04	15.471
571.37	15.484
571.70	15.505
572.04	15.496
572.37	15.506
572.71	15.518
573.04	15.553
573.37	15.561
573.71	15.602
574.04	15.624
574.38	15.653
574.71	15.683
575.04	15.695
575.38	15.717
575.71	15.768
576.05	15.796
576.38	15.840
576.71	15.884
577.05	15.918
577.38	15.932
577.71	15.965
578.05	16.013
578.38	16.058
578.71	16.081
579.05	16.137
579.38	16.135
579.71	16.158
580.05	16.184
580.38	16.191
580.71	16.203
581.05	16.233
581.38	16.236
581.71	16.230
582.05	16.238
582.38	16.276
582.71	16.243
583.04	16.250
583.38	16.255
583.71	16.248
584.04	16.230
584.38	16.257
584.71	16.273
585.04	16.263
585.37	16.254
585.71	16.238
586.04	16.220
586.37	16.223
586.70	16.229
587.04	16.248
587.37	16.234
587.70	16.251
588.03	16.259
588.37	16.262
588.70	16.311
589.03	16.315
589.36	16.330
589.69	16.332
590.03	16.360
590.36	16.379
590.69	16.386
591.02	16.396
591.35	16.390
591.69	16.378
592.02	16.372
592.35	16.333
592.68	16.315
593.01	16.308
593.35	16.287
593.68	16.257
594.01	16.233
594.34	16.213
594.67	16.209
595.00	16.202
595.34	16.203
595.67	16.215
596.00	16.227
596.33	16.261
596.66	16.277
596.99	16.295
597.32	16.313
597.65	16.341
597.99	16.376
598.32	16.408
598.65	16.447
598.98	16.455
599.31	16.444
599.64	16.439
599.97	16.429
600.30	16.387
600.63	16.414
600.96	16.388
601.30	16.347
601.63	16.316
601.96	16.316
602.29	16.262
602.62	16.269
602.95	16.268
603.28	16.279
603.61	16.280
603.94	16.303
604.27	16.281
604.60	16.309
604.93	16.345
605.26	16.351
605.59	16.334
605.92	16.380
606.25	16.381
606.58	16.402
606.91	16.368
607.24	16.368
607.57	16.380
607.90	16.391
608.23	16.398
608.56	16.397
608.89	16.421
609.22	16.421
609.55	16.436
609.88	16.476
610.21	16.500
610.54	16.558
610.87	16.588
611.20	16.644
611.53	16.664
611.86	16.687
612.19	16.735
612.52	16.761
612.85	16.811
613.18	16.831
613.51	16.818
613.84	16.821
614.17	16.855
614.49	16.871
614.82	16.855
615.15	16.879
615.48	16.844
615.81	16.835
616.14	16.880
616.47	16.867
616.80	16.871
617.13	16.889
617.46	16.913
617.78	16.917
618.11	16.899
618.44	16.924
618.77	16.933
619.10	16.978
619.43	17.013
619.76	16.969
620.09	17.036
620.41	17.044
620.74	17.052
621.07	17.022
621.40	17.014
621.73	17.043
622.06	17.034
622.38	17.030
622.71	17.061
623.04	17.045
623.37	17.041
623.70	17.020
624.02	16.995
624.35	16.970
624.68	16.987
625.01	16.963
625.34	16.969
625.66	16.962
625.99	16.947
626.32	16.922
626.65	16.936
626.98	16.961
627.30	16.979
627.63	17.018
627.96	17.051
628.29	17.092
628.61	17.133
628.94	17.129
629.27	17.147
629.60	17.185
629.92	17.217
630.25	17.213
630.58	17.229
630.91	17.232
631.23	17.227
631.56	17.206
631.89	17.161
632.21	17.185
632.54	17.211
632.87	17.205
633.19	17.232
633.52	17.234
633.85	17.270
634.18	17.280
634.50	17.287
634.83	17.284
635.16	17.340
635.48	17.386
635.81	17.394
636.14	17.419
636.46	17.448
636.79	17.450
637.11	17.498
637.44	17.520
637.77	17.512
638.09	17.515
638.42	17.543
638.75	17.502
639.07	17.482
639.40	17.503
639.73	17.502
640.05	17.484
640.38	17.500
640.70	17.438
641.03	17.411
641.36	17.437
641.68	17.492
642.01	17.531
642.33	17.547
642.66	17.577
642.98	17.560
643.31	17.583
643.64	17.595
643.96	17.538
644.29	17.563
644.61	17.527
644.94	17.509
645.26	17.458
645.59	17.437
645.91	17.428
646.24	17.437
646.56	17.420
646.89	17.392
647.22	17.358
