OOIBase32 Version 2.0.0.6 Data File
++++++++++++++++++++++++++++++++++++
Date: 01-19-2012, 17:33:12
User: Valued Ocean Optics Customer
Spectrometer Serial Number: USB2E2917
Spectrometer Channel: Master
Integration Time (msec): 6
Spectra Averaged: 10
Boxcar Smoothing: 5
Correct for Electrical Dark: Enabled
Time Normalized: Disabled
Dual-beam Reference: Disabled
Reference Channel: Master
Temperature: Not acquired
Spectrometer Type: S2000
ADC Type: USB2000
Number of Pixels in File: 2048
Graph Title: 
>>>>>Begin Spectral Data<<<<<
180.30	0.000
180.67	0.000
181.03	78.391
181.40	-102.085
181.77	69.165
182.14	-105.393
182.51	-44.768
182.88	143.654
183.25	-86.545
183.62	99.369
183.99	256.763
184.36	80.219
184.73	139.426
185.10	166.669
185.46	66.483
185.83	155.104
186.20	-358.461
186.57	61.252
186.94	133.261
187.31	40.194
187.68	68.095
188.05	53.007
188.42	40.857
188.78	36.751
189.15	29.848
189.52	33.634
189.89	29.669
190.26	37.090
190.63	34.318
191.00	20.176
191.37	25.311
191.73	30.491
192.10	15.689
192.47	9.518
192.84	7.897
193.21	4.906
193.58	-14.859
193.94	-25.227
194.31	-29.589
194.68	-7.728
195.05	-5.974
195.42	-19.554
195.79	-33.081
196.15	-16.644
196.52	-14.829
196.89	-10.931
197.26	-14.187
197.63	-14.829
198.00	-14.298
198.36	-18.739
198.73	-42.742
199.10	-21.645
199.47	-18.374
199.84	-10.636
200.20	-8.432
200.57	-16.166
200.94	-5.361
201.31	-3.792
201.68	5.666
202.04	1.363
202.41	-5.973
202.78	-3.401
203.15	-6.786
203.51	-8.856
203.88	-3.018
204.25	3.655
204.62	11.487
204.98	-5.538
205.35	5.366
205.72	-15.057
206.09	-9.347
206.46	12.538
206.82	22.771
207.19	22.347
207.56	15.690
207.92	3.072
208.29	-30.766
208.66	-42.620
209.03	-20.371
209.39	-26.211
209.76	-0.753
210.13	5.575
210.50	-2.126
210.86	-2.917
211.23	-2.518
211.60	7.936
211.96	6.310
212.33	15.267
212.70	22.947
213.07	25.805
213.43	28.757
213.80	18.932
214.17	10.630
214.53	10.804
214.90	6.480
215.27	2.382
215.63	2.411
216.00	9.263
216.37	4.330
216.74	2.372
217.10	-8.519
217.47	-9.280
217.84	3.269
218.20	9.594
218.57	9.623
218.94	8.245
219.30	9.385
219.67	11.997
220.04	9.112
220.40	9.705
220.77	4.291
221.13	5.344
221.50	0.304
221.87	-4.416
222.23	-5.719
222.60	-5.748
222.97	-3.842
223.33	-3.383
223.70	-6.946
224.07	-5.372
224.43	-3.860
224.80	-1.112
225.16	-0.204
225.53	2.366
225.90	3.734
226.26	4.146
226.63	3.584
226.99	3.911
227.36	3.250
227.73	2.855
228.09	1.864
228.46	2.184
228.82	1.740
229.19	0.730
229.56	-1.005
229.92	-2.227
230.29	-2.968
230.65	-2.408
231.02	-3.246
231.38	-2.426
231.75	-1.059
232.12	0.259
232.48	0.725
232.85	2.273
233.21	4.069
233.58	3.642
233.94	3.704
234.31	5.495
234.68	3.860
235.04	4.083
235.41	2.903
235.77	1.999
236.14	1.771
236.50	1.491
236.87	0.232
237.23	1.102
237.60	1.865
237.96	2.063
238.33	1.811
238.69	2.862
239.06	2.211
239.42	2.192
239.79	2.292
240.15	2.615
240.52	2.885
240.88	2.908
241.25	2.501
241.61	2.669
241.98	2.595
242.34	2.266
242.71	2.175
243.07	2.480
243.44	2.879
243.80	2.965
244.17	2.814
244.53	2.844
244.90	2.721
245.26	2.684
245.63	2.499
245.99	2.678
246.36	2.771
246.72	2.531
247.09	2.535
247.45	2.652
247.81	2.285
248.18	2.178
248.54	2.049
248.91	2.422
249.27	2.061
249.64	1.798
250.00	1.839
250.36	1.491
250.73	1.602
251.09	1.667
251.46	1.507
251.82	2.424
252.19	2.377
252.55	2.318
252.91	2.061
253.28	2.927
253.64	3.248
254.01	3.233
254.37	3.281
254.73	3.379
255.10	3.123
255.46	2.730
255.83	2.309
256.19	2.585
256.55	2.700
256.92	2.727
257.28	2.406
257.65	2.289
258.01	2.060
258.37	2.103
258.74	2.123
259.10	2.093
259.46	2.065
259.83	2.118
260.19	2.008
260.55	1.983
260.92	1.748
261.28	2.005
261.64	2.253
262.01	2.508
262.37	2.494
262.73	2.532
263.10	2.573
263.46	2.670
263.82	2.526
264.19	2.247
264.55	2.148
264.91	2.334
265.28	2.269
265.64	2.450
266.00	2.157
266.37	2.202
266.73	2.189
267.09	2.303
267.46	2.212
267.82	2.431
268.18	2.350
268.54	2.107
268.91	2.111
269.27	1.965
269.63	1.409
270.00	1.655
270.36	1.505
270.72	1.567
271.08	1.617
271.45	1.839
271.81	1.783
272.17	2.178
272.53	2.398
272.90	2.320
273.26	2.262
273.62	2.483
273.98	2.308
274.35	2.492
274.71	2.635
275.07	2.492
275.43	2.155
275.80	2.108
276.16	1.863
276.52	1.905
276.88	1.965
277.25	1.930
277.61	2.048
277.97	2.153
278.33	2.167
278.69	1.889
279.06	1.859
279.42	1.985
279.78	1.907
280.14	1.855
280.50	1.722
280.87	1.810
281.23	1.742
281.59	1.692
281.95	1.695
282.31	1.741
282.68	1.769
283.04	1.709
283.40	1.784
283.76	1.963
284.12	2.047
284.48	2.087
284.85	1.938
285.21	1.920
285.57	1.976
285.93	1.744
286.29	1.635
286.65	1.867
287.02	2.012
287.38	2.009
287.74	1.965
288.10	2.146
288.46	2.283
288.82	2.503
289.18	2.783
289.54	2.873
289.91	3.201
290.27	3.394
290.63	3.193
290.99	3.322
291.35	3.346
291.71	3.403
292.07	3.079
292.43	3.084
292.79	3.102
293.16	3.128
293.52	3.003
293.88	2.930
294.24	3.013
294.60	3.102
294.96	3.077
295.32	3.219
295.68	3.166
296.04	3.413
296.40	3.332
296.76	3.315
297.12	3.291
297.49	3.547
297.85	3.804
298.21	3.861
298.57	4.034
298.93	4.170
299.29	4.328
299.65	4.606
300.01	4.775
300.37	5.052
300.73	5.138
301.09	5.231
301.45	5.285
301.81	5.223
302.17	5.434
302.53	5.391
302.89	5.422
303.25	5.393
303.61	5.353
303.97	5.514
304.33	5.674
304.69	5.850
305.05	6.088
305.41	6.069
305.77	6.300
306.13	6.350
306.49	6.546
306.85	6.667
307.21	6.778
307.57	6.927
307.93	7.022
308.29	6.986
308.65	7.028
309.01	6.997
309.37	7.101
309.73	7.042
310.09	7.038
310.45	7.089
310.81	7.220
311.17	7.318
311.53	7.398
311.89	7.240
312.25	7.429
312.61	7.625
312.96	7.741
313.32	8.039
313.68	8.190
314.04	8.188
314.40	8.328
314.76	8.377
315.12	8.448
315.48	8.454
315.84	8.517
316.20	8.490
316.56	8.394
316.92	8.485
317.27	8.338
317.63	8.457
317.99	8.631
318.35	8.631
318.71	8.620
319.07	8.603
319.43	8.721
319.79	8.859
320.15	8.936
320.50	9.103
320.86	9.078
321.22	9.207
321.58	9.101
321.94	9.119
322.30	9.044
322.66	9.106
323.01	9.189
323.37	9.164
323.73	9.127
324.09	9.062
324.45	8.807
324.81	8.728
325.17	8.497
325.52	8.469
325.88	8.429
326.24	8.570
326.60	8.580
326.96	8.505
327.31	8.502
327.67	8.560
328.03	8.627
328.39	8.887
328.75	8.911
329.11	9.005
329.46	9.093
329.82	9.077
330.18	8.939
330.54	8.910
330.90	8.901
331.25	8.895
331.61	8.924
331.97	8.832
332.33	8.681
332.68	8.745
333.04	8.774
333.40	8.808
333.76	8.871
334.11	8.834
334.47	8.768
334.83	8.792
335.19	8.755
335.54	8.698
335.90	8.691
336.26	8.739
336.62	8.648
336.97	8.613
337.33	8.570
337.69	8.467
338.05	8.473
338.40	8.500
338.76	8.446
339.12	8.461
339.48	8.360
339.83	8.432
340.19	8.401
340.55	8.432
340.90	8.428
341.26	8.452
341.62	8.538
341.97	8.545
342.33	8.476
342.69	8.488
343.04	8.528
343.40	8.636
343.76	8.591
344.12	8.555
344.47	8.534
344.83	8.603
345.19	8.616
345.54	8.615
345.90	8.634
346.26	8.665
346.61	8.613
346.97	8.575
347.32	8.524
347.68	8.526
348.04	8.549
348.39	8.565
348.75	8.496
349.11	8.424
349.46	8.360
349.82	8.336
350.18	8.302
350.53	8.326
350.89	8.328
351.24	8.277
351.60	8.222
351.96	8.103
352.31	8.104
352.67	8.117
353.02	8.120
353.38	8.153
353.74	8.099
354.09	8.153
354.45	8.105
354.80	8.066
355.16	8.140
355.52	8.157
355.87	8.161
356.23	8.162
356.58	8.153
356.94	8.104
357.29	8.054
357.65	8.093
358.00	8.003
358.36	8.064
358.72	7.984
359.07	7.834
359.43	7.759
359.78	7.724
360.14	7.605
360.49	7.633
360.85	7.643
361.20	7.655
361.56	7.663
361.91	7.700
362.27	7.599
362.62	7.623
362.98	7.764
363.33	7.814
363.69	7.878
364.04	7.956
364.40	7.879
364.75	7.858
365.11	7.794
365.46	7.779
365.82	7.832
366.17	7.882
366.53	7.859
366.88	7.746
367.24	7.725
367.59	7.744
367.95	7.754
368.30	7.790
368.66	7.824
369.01	7.807
369.37	7.799
369.72	7.685
370.08	7.663
370.43	7.675
370.78	7.681
371.14	7.650
371.49	7.600
371.85	7.582
372.20	7.491
372.56	7.462
372.91	7.431
373.26	7.378
373.62	7.416
373.97	7.422
374.33	7.406
374.68	7.403
375.03	7.363
375.39	7.309
375.74	7.279
376.10	7.324
376.45	7.260
376.80	7.285
377.16	7.293
377.51	7.247
377.87	7.233
378.22	7.185
378.57	7.181
378.93	7.187
379.28	7.224
379.63	7.203
379.99	7.185
380.34	7.239
380.70	7.212
381.05	7.202
381.40	7.192
381.76	7.195
382.11	7.214
382.46	7.174
382.82	7.152
383.17	7.117
383.52	7.066
383.88	7.038
384.23	6.973
384.58	6.994
384.94	6.994
385.29	7.014
385.64	6.987
385.99	6.977
386.35	6.990
386.70	6.968
387.05	6.914
387.41	6.913
387.76	6.856
388.11	6.865
388.47	6.811
388.82	6.774
389.17	6.737
389.52	6.687
389.88	6.660
390.23	6.632
390.58	6.623
390.93	6.660
391.29	6.664
391.64	6.662
391.99	6.621
392.34	6.606
392.70	6.566
393.05	6.559
393.40	6.572
393.75	6.572
394.11	6.560
394.46	6.576
394.81	6.529
395.16	6.485
395.52	6.499
395.87	6.501
396.22	6.507
396.57	6.585
396.92	6.553
397.28	6.536
397.63	6.513
397.98	6.493
398.33	6.473
398.68	6.483
399.04	6.478
399.39	6.479
399.74	6.425
400.09	6.365
400.44	6.305
400.80	6.283
401.15	6.253
401.50	6.224
401.85	6.213
402.20	6.160
402.55	6.119
402.90	6.100
403.26	6.038
403.61	6.055
403.96	6.056
404.31	6.050
404.66	6.044
405.01	6.011
405.36	6.005
405.72	5.991
406.07	6.016
406.42	6.043
406.77	6.054
407.12	6.071
407.47	6.073
407.82	6.094
408.17	6.044
408.53	6.062
408.88	6.077
409.23	6.034
409.58	5.986
409.93	5.943
410.28	5.914
410.63	5.884
410.98	5.864
411.33	5.838
411.68	5.794
412.03	5.785
412.38	5.749
412.73	5.738
413.09	5.728
413.44	5.731
413.79	5.726
414.14	5.685
414.49	5.664
414.84	5.634
415.19	5.608
415.54	5.592
415.89	5.554
416.24	5.514
416.59	5.475
416.94	5.468
417.29	5.442
417.64	5.414
417.99	5.403
418.34	5.390
418.69	5.391
419.04	5.380
419.39	5.357
419.74	5.350
420.09	5.348
420.44	5.345
420.79	5.338
421.14	5.344
421.49	5.343
421.84	5.349
422.19	5.336
422.54	5.319
422.89	5.311
423.24	5.320
423.59	5.318
423.94	5.316
424.29	5.313
424.64	5.315
424.99	5.310
425.34	5.322
425.68	5.335
426.03	5.362
426.38	5.383
426.73	5.410
427.08	5.409
427.43	5.443
427.78	5.457
428.13	5.476
428.48	5.472
428.83	5.469
429.18	5.465
429.53	5.439
429.87	5.403
430.22	5.395
430.57	5.389
430.92	5.394
431.27	5.392
431.62	5.383
431.97	5.376
432.32	5.385
432.67	5.386
433.01	5.382
433.36	5.379
433.71	5.407
434.06	5.406
434.41	5.401
434.76	5.412
435.11	5.415
435.45	5.396
435.80	5.390
436.15	5.373
436.50	5.373
436.85	5.350
437.20	5.356
437.54	5.337
437.89	5.324
438.24	5.315
438.59	5.299
438.94	5.267
439.29	5.265
439.63	5.267
439.98	5.257
440.33	5.237
440.68	5.246
441.03	5.238
441.37	5.232
441.72	5.229
442.07	5.233
442.42	5.222
442.76	5.219
443.11	5.220
443.46	5.204
443.81	5.212
444.16	5.211
444.50	5.188
444.85	5.172
445.20	5.168
445.55	5.173
445.89	5.156
446.24	5.154
446.59	5.162
446.94	5.165
447.28	5.173
447.63	5.173
447.98	5.199
448.32	5.250
448.67	5.271
449.02	5.271
449.37	5.260
449.71	5.266
450.06	5.279
450.41	5.293
450.75	5.289
451.10	5.290
451.45	5.279
451.79	5.272
452.14	5.253
452.49	5.249
452.84	5.257
453.18	5.274
453.53	5.259
453.88	5.251
454.22	5.240
454.57	5.234
454.92	5.228
455.26	5.210
455.61	5.190
455.95	5.170
456.30	5.170
456.65	5.163
456.99	5.139
457.34	5.152
457.69	5.146
458.03	5.144
458.38	5.152
458.73	5.154
459.07	5.168
459.42	5.178
459.76	5.182
460.11	5.187
460.46	5.203
460.80	5.221
461.15	5.218
461.49	5.232
461.84	5.226
462.19	5.228
462.53	5.231
462.88	5.251
463.22	5.247
463.57	5.263
463.91	5.255
464.26	5.263
464.61	5.266
464.95	5.272
465.30	5.265
465.64	5.255
465.99	5.243
466.33	5.236
466.68	5.221
467.02	5.214
467.37	5.206
467.71	5.208
468.06	5.206
468.41	5.207
468.75	5.213
469.10	5.214
469.44	5.229
469.79	5.237
470.13	5.238
470.48	5.251
470.82	5.258
471.17	5.255
471.51	5.251
471.86	5.237
472.20	5.222
472.55	5.208
472.89	5.216
473.23	5.205
473.58	5.211
473.92	5.202
474.27	5.185
474.61	5.177
474.96	5.173
475.30	5.171
475.65	5.164
475.99	5.162
476.34	5.145
476.68	5.129
477.02	5.121
477.37	5.105
477.71	5.097
478.06	5.079
478.40	5.065
478.75	5.085
479.09	5.104
479.43	5.171
479.78	5.277
480.12	5.395
480.47	5.506
480.81	5.627
481.15	5.741
481.50	5.846
481.84	5.980
482.19	6.124
482.53	6.251
482.87	6.356
483.22	6.380
483.56	6.330
483.90	6.235
484.25	6.118
484.59	5.981
484.94	5.833
485.28	5.681
485.62	5.503
485.97	5.316
486.31	5.136
486.65	4.986
487.00	4.885
487.34	4.829
487.68	4.813
488.03	4.815
488.37	4.822
488.71	4.838
489.06	4.860
489.40	4.875
489.74	4.891
490.09	4.906
490.43	4.918
490.77	4.931
491.11	4.940
491.46	4.941
491.80	4.932
492.14	4.928
492.49	4.918
492.83	4.912
493.17	4.910
493.51	4.913
493.86	4.923
494.20	4.933
494.54	4.942
494.88	4.943
495.23	4.940
495.57	4.940
495.91	4.944
496.25	4.950
496.60	4.951
496.94	4.957
497.28	4.954
497.62	4.953
497.97	4.950
498.31	4.959
498.65	4.982
498.99	4.988
499.33	4.987
499.68	4.986
500.02	4.989
500.36	4.986
500.70	4.990
501.04	4.981
501.39	4.995
501.73	5.000
502.07	4.997
502.41	4.982
502.75	4.977
503.09	4.982
503.44	4.977
503.78	4.965
504.12	4.962
504.46	4.960
504.80	4.966
505.14	4.935
505.49	4.924
505.83	4.916
506.17	4.907
506.51	4.911
506.85	4.909
507.19	4.900
507.53	4.900
507.87	4.900
508.22	4.889
508.56	4.890
508.90	4.901
509.24	4.898
509.58	4.890
509.92	4.891
510.26	4.901
510.60	4.898
510.94	4.899
511.28	4.899
511.63	4.910
511.97	4.914
512.31	4.915
512.65	4.906
512.99	4.915
513.33	4.913
513.67	4.912
514.01	4.898
514.35	4.885
514.69	4.880
515.03	4.865
515.37	4.846
515.71	4.837
516.05	4.823
516.39	4.816
516.73	4.802
517.07	4.799
517.41	4.788
517.75	4.768
518.09	4.768
518.43	4.774
518.77	4.776
519.11	4.772
519.45	4.766
519.79	4.777
520.13	4.783
520.47	4.784
520.81	4.786
521.15	4.779
521.49	4.790
521.83	4.781
522.17	4.755
522.51	4.745
522.85	4.740
523.19	4.729
523.53	4.720
523.87	4.727
524.21	4.740
524.55	4.778
524.89	4.831
525.23	4.871
525.57	4.912
525.91	4.958
526.25	5.004
526.58	5.043
526.92	5.085
527.26	5.098
527.60	5.080
527.94	5.035
528.28	4.949
528.62	4.839
528.96	4.744
529.30	4.693
529.64	4.640
529.97	4.576
530.31	4.516
530.65	4.456
530.99	4.417
531.33	4.406
531.67	4.419
532.01	4.462
532.35	4.520
532.68	4.564
533.02	4.552
533.36	4.547
533.70	4.542
534.04	4.545
534.38	4.538
534.71	4.530
535.05	4.525
535.39	4.528
535.73	4.522
536.07	4.522
536.41	4.537
536.74	4.542
537.08	4.539
537.42	4.541
537.76	4.531
538.10	4.526
538.43	4.526
538.77	4.530
539.11	4.531
539.45	4.527
539.79	4.526
540.12	4.515
540.46	4.509
540.80	4.505
541.14	4.491
541.47	4.479
541.81	4.480
542.15	4.476
542.49	4.473
542.82	4.454
543.16	4.448
543.50	4.446
543.84	4.448
544.17	4.459
544.51	4.461
544.85	4.468
545.18	4.471
545.52	4.467
545.86	4.465
546.20	4.473
546.53	4.489
546.87	4.490
547.21	4.493
547.54	4.478
547.88	4.478
548.22	4.481
548.55	4.488
548.89	4.509
549.23	4.505
549.56	4.506
549.90	4.490
550.24	4.497
550.57	4.511
550.91	4.520
551.25	4.520
551.58	4.512
551.92	4.516
552.26	4.531
552.59	4.502
552.93	4.508
553.27	4.504
553.60	4.505
553.94	4.511
554.27	4.529
554.61	4.523
554.95	4.532
555.28	4.518
555.62	4.497
555.95	4.475
556.29	4.497
556.63	4.498
556.96	4.508
557.30	4.501
557.63	4.485
557.97	4.460
558.31	4.449
558.64	4.461
558.98	4.476
559.31	4.471
559.65	4.469
559.98	4.468
560.32	4.490
560.65	4.479
560.99	4.470
561.33	4.467
561.66	4.461
562.00	4.456
562.33	4.441
562.67	4.431
563.00	4.439
563.34	4.438
563.67	4.442
564.01	4.417
564.34	4.429
564.68	4.437
565.01	4.432
565.35	4.418
565.68	4.427
566.02	4.420
566.35	4.415
566.69	4.398
567.02	4.396
567.36	4.375
567.69	4.365
568.03	4.349
568.36	4.338
568.69	4.330
569.03	4.322
569.36	4.297
569.70	4.291
570.03	4.284
570.37	4.285
570.70	4.261
571.04	4.266
571.37	4.250
571.70	4.243
572.04	4.241
572.37	4.237
572.71	4.246
573.04	4.253
573.37	4.245
573.71	4.251
574.04	4.259
574.38	4.275
574.71	4.261
575.04	4.258
575.38	4.242
575.71	4.242
576.05	4.230
576.38	4.235
576.71	4.238
577.05	4.246
577.38	4.240
577.71	4.259
578.05	4.249
578.38	4.249
578.71	4.270
579.05	4.295
579.38	4.281
579.71	4.296
580.05	4.303
580.38	4.304
580.71	4.274
581.05	4.265
581.38	4.254
581.71	4.264
582.05	4.275
582.38	4.306
582.71	4.318
583.04	4.335
583.38	4.342
583.71	4.331
584.04	4.334
584.38	4.374
584.71	4.395
585.04	4.384
585.37	4.379
585.71	4.379
586.04	4.359
586.37	4.350
586.70	4.357
587.04	4.359
587.37	4.354
587.70	4.355
588.03	4.360
588.37	4.349
588.70	4.374
589.03	4.376
589.36	4.385
589.69	4.371
590.03	4.375
590.36	4.388
590.69	4.404
591.02	4.430
591.35	4.436
591.69	4.440
592.02	4.448
592.35	4.431
592.68	4.430
593.01	4.416
593.35	4.413
593.68	4.407
594.01	4.382
594.34	4.359
594.67	4.342
595.00	4.327
595.34	4.315
595.67	4.317
596.00	4.329
596.33	4.334
596.66	4.355
596.99	4.357
597.32	4.377
597.65	4.382
597.99	4.416
598.32	4.429
598.65	4.460
598.98	4.486
599.31	4.482
599.64	4.485
599.97	4.489
600.30	4.477
600.63	4.500
600.96	4.474
601.30	4.478
601.63	4.487
601.96	4.485
602.29	4.470
602.62	4.456
602.95	4.468
603.28	4.448
603.61	4.470
603.94	4.489
604.27	4.488
604.60	4.503
604.93	4.505
605.26	4.489
605.59	4.493
605.92	4.516
606.25	4.527
606.58	4.539
606.91	4.550
607.24	4.532
607.57	4.521
607.90	4.515
608.23	4.523
608.56	4.539
608.89	4.550
609.22	4.534
609.55	4.523
609.88	4.522
610.21	4.546
610.54	4.549
610.87	4.568
611.20	4.587
611.53	4.606
611.86	4.616
612.19	4.649
612.52	4.648
612.85	4.682
613.18	4.695
613.51	4.711
613.84	4.696
614.17	4.727
614.49	4.720
614.82	4.721
615.15	4.711
615.48	4.696
615.81	4.683
616.14	4.679
616.47	4.679
616.80	4.672
617.13	4.689
617.46	4.684
617.78	4.673
618.11	4.682
618.44	4.692
618.77	4.718
619.10	4.737
619.43	4.732
619.76	4.729
620.09	4.740
620.41	4.739
620.74	4.734
621.07	4.760
621.40	4.776
621.73	4.768
622.06	4.770
622.38	4.757
622.71	4.755
623.04	4.752
623.37	4.737
623.70	4.731
624.02	4.728
624.35	4.689
624.68	4.665
625.01	4.637
625.34	4.644
625.66	4.614
625.99	4.603
626.32	4.601
626.65	4.581
626.98	4.598
627.30	4.619
627.63	4.633
627.96	4.654
628.29	4.665
628.61	4.662
628.94	4.642
629.27	4.680
629.60	4.704
629.92	4.716
630.25	4.737
630.58	4.749
630.91	4.723
631.23	4.726
631.56	4.739
631.89	4.721
632.21	4.754
632.54	4.773
632.87	4.764
633.19	4.749
633.52	4.751
633.85	4.750
634.18	4.732
634.50	4.766
634.83	4.731
635.16	4.724
635.48	4.702
635.81	4.721
636.14	4.721
636.46	4.717
636.79	4.742
637.11	4.736
637.44	4.739
637.77	4.751
638.09	4.738
638.42	4.789
638.75	4.793
639.07	4.836
639.40	4.823
639.73	4.848
640.05	4.812
640.38	4.807
640.70	4.794
641.03	4.806
641.36	4.817
641.68	4.838
642.01	4.860
642.33	4.819
642.66	4.810
642.98	4.790
643.31	4.796
643.64	4.839
643.96	4.828
644.29	4.808
644.61	4.826
644.94	4.829
645.26	4.795
645.59	4.751
645.91	4.771
646.24	4.792
646.56	4.765
646.89	4.741
647.22	4.708
647.54	4.690
647.87	4.727
648.19	4.715
648.52	4.691
648.84	4.702
649.17	4.690
649.49	4.685
649.82	4.677
650.14	4.706
650.47	4.703
650.79	4.748
651.11	4.747
651.44	4.759
651.76	4.766
652.09	4.799
652.41	4.801
652.74	4.828
653.06	4.910
653.39	4.890
653.71	4.909
654.04	4.871
654.36	4.829
654.68	4.812
655.01	4.790
655.33	4.786
655.66	4.775
655.98	4.753
656.30	4.743
656.63	4.675
656.95	4.674
657.28	4.672
657.60	4.707
657.92	4.712
658.25	4.725
658.57	4.723
658.90	4.705
659.22	4.719
659.54	4.727
659.87	4.747
660.19	4.786
