OOIBase32 Version 2.0.0.6 Data File
++++++++++++++++++++++++++++++++++++
Date: 01-19-2012, 17:32:32
User: Valued Ocean Optics Customer
Spectrometer Serial Number: USB2E2917
Spectrometer Channel: Master
Integration Time (msec): 6
Spectra Averaged: 10
Boxcar Smoothing: 5
Correct for Electrical Dark: Enabled
Time Normalized: Disabled
Dual-beam Reference: Disabled
Reference Channel: Master
Temperature: Not acquired
Spectrometer Type: S2000
ADC Type: USB2000
Number of Pixels in File: 2048
Graph Title: 
>>>>>Begin Spectral Data<<<<<
180.30	0.000
180.67	0.000
181.03	76.103
181.40	34.688
181.77	-5.031
182.14	-0.951
182.51	-14.437
182.88	190.194
183.25	202.632
183.62	-0.444
183.99	-297.521
184.36	114.863
184.73	147.397
185.10	153.285
185.46	127.470
185.83	6.649
186.20	-108.126
186.57	40.083
186.94	151.722
187.31	197.927
187.68	81.251
188.05	92.880
188.42	64.945
188.78	62.362
189.15	57.082
189.52	51.465
189.89	48.120
190.26	41.930
190.63	41.472
191.00	49.241
191.37	43.088
191.73	37.295
192.10	25.282
192.47	33.167
192.84	33.304
193.21	29.579
193.58	7.966
193.94	-0.935
194.31	-4.616
194.68	-1.720
195.05	-21.284
195.42	-25.406
195.79	-33.945
196.15	-6.085
196.52	-4.330
196.89	-12.318
197.26	-19.604
197.63	-10.974
198.00	-7.385
198.36	-3.359
198.73	-9.910
199.10	1.780
199.47	7.718
199.84	8.508
200.20	10.364
200.57	-0.064
200.94	13.567
201.31	23.092
201.68	30.909
202.04	25.541
202.41	21.326
202.78	25.811
203.15	27.940
203.51	25.176
203.88	31.682
204.25	27.303
204.62	26.058
204.98	8.522
205.35	-3.228
205.72	-26.052
206.09	-24.217
206.46	-12.923
206.82	-12.676
207.19	-24.973
207.56	-41.383
207.92	-55.395
208.29	-92.229
208.66	-106.188
209.03	-90.794
209.39	-85.253
209.76	-61.269
210.13	-54.278
210.50	-44.272
210.86	-34.611
211.23	-39.217
211.60	-30.956
211.96	-18.793
212.33	4.444
212.70	7.567
213.07	10.631
213.43	9.058
213.80	-0.042
214.17	-2.691
214.53	-9.967
214.90	-13.913
215.27	-8.832
215.63	-7.108
216.00	-12.175
216.37	-20.647
216.74	-21.180
217.10	-27.320
217.47	-28.672
217.84	-15.400
218.20	-2.764
218.57	-4.253
218.94	-5.390
219.30	-0.948
219.67	1.702
220.04	-3.091
220.40	-0.734
220.77	1.044
221.13	8.471
221.50	7.432
221.87	0.835
222.23	-5.681
222.60	-2.847
222.97	-2.125
223.33	-1.257
223.70	-3.079
224.07	0.468
224.43	0.299
224.80	0.226
225.16	1.158
225.53	4.616
225.90	6.285
226.26	6.573
226.63	6.262
226.99	6.969
227.36	6.849
227.73	7.268
228.09	6.553
228.46	7.552
228.82	8.436
229.19	8.528
229.56	6.830
229.92	6.957
230.29	7.163
230.65	8.085
231.02	8.429
231.38	8.084
231.75	8.005
232.12	8.330
232.48	7.384
232.85	8.048
233.21	6.861
233.58	5.535
233.94	5.565
234.31	6.425
234.68	4.571
235.04	5.720
235.41	5.352
235.77	5.348
236.14	6.140
236.50	6.296
236.87	5.829
237.23	5.986
237.60	6.777
237.96	6.284
238.33	5.890
238.69	6.049
239.06	4.703
239.42	4.790
239.79	4.498
240.15	4.439
240.52	5.058
240.88	5.072
241.25	4.956
241.61	5.099
241.98	4.904
242.34	4.760
242.71	4.875
243.07	4.934
243.44	5.045
243.80	5.374
244.17	5.441
244.53	5.183
244.90	5.068
245.26	5.218
245.63	5.242
245.99	5.428
246.36	5.704
246.72	5.580
247.09	5.934
247.45	6.212
247.81	6.005
248.18	6.095
248.54	5.968
248.91	6.227
249.27	6.017
249.64	6.016
250.00	5.778
250.36	5.060
250.73	5.167
251.09	4.982
251.46	4.817
251.82	4.971
252.19	4.734
252.55	4.926
252.91	4.828
253.28	5.680
253.64	5.734
254.01	6.059
254.37	6.269
254.73	6.234
255.10	6.167
255.46	6.039
255.83	5.734
256.19	5.888
256.55	5.827
256.92	5.594
257.28	5.353
257.65	5.260
258.01	5.316
258.37	5.435
258.74	5.403
259.10	5.249
259.46	5.078
259.83	5.229
260.19	5.304
260.55	5.265
260.92	5.363
261.28	5.262
261.64	5.164
262.01	5.129
262.37	5.154
262.73	5.376
263.10	5.355
263.46	5.561
263.82	5.491
264.19	5.206
264.55	5.174
264.91	5.364
265.28	5.471
265.64	5.642
266.00	5.560
266.37	5.322
266.73	5.172
267.09	5.297
267.46	5.108
267.82	5.212
268.18	4.966
268.54	4.836
268.91	4.710
269.27	4.597
269.63	4.497
270.00	4.428
270.36	4.300
270.72	4.328
271.08	4.482
271.45	4.742
271.81	4.646
272.17	4.983
272.53	5.156
272.90	5.031
273.26	5.206
273.62	5.415
273.98	5.502
274.35	5.755
274.71	5.711
275.07	5.543
275.43	5.133
275.80	5.321
276.16	5.400
276.52	5.502
276.88	5.634
277.25	5.426
277.61	5.284
277.97	5.129
278.33	4.956
278.69	4.992
279.06	4.937
279.42	5.168
279.78	4.764
280.14	4.412
280.50	4.321
280.87	4.426
281.23	4.356
281.59	4.329
281.95	4.313
282.31	4.429
282.68	4.441
283.04	4.455
283.40	4.409
283.76	4.588
284.12	4.868
284.48	4.891
284.85	4.669
285.21	4.614
285.57	4.722
285.93	4.757
286.29	4.677
286.65	4.862
287.02	4.872
287.38	4.964
287.74	4.999
288.10	5.033
288.46	5.059
288.82	5.287
289.18	5.362
289.54	5.296
289.91	5.439
290.27	5.537
290.63	5.223
290.99	5.254
291.35	5.346
291.71	5.365
292.07	5.150
292.43	5.179
292.79	5.251
293.16	5.481
293.52	5.621
293.88	5.654
294.24	5.770
294.60	6.027
294.96	6.155
295.32	6.270
295.68	6.488
296.04	6.772
296.40	6.724
296.76	6.834
297.12	6.970
297.49	7.234
297.85	7.533
298.21	7.922
298.57	8.140
298.93	8.323
299.29	8.400
299.65	8.484
300.01	8.720
300.37	9.235
300.73	9.517
301.09	9.648
301.45	9.675
301.81	9.724
302.17	9.862
302.53	9.983
302.89	10.264
303.25	10.617
303.61	10.824
303.97	10.967
304.33	11.045
304.69	11.196
305.05	11.673
305.41	11.918
305.77	12.221
306.13	12.305
306.49	12.549
306.85	12.539
307.21	12.589
307.57	12.764
307.93	12.957
308.29	13.091
308.65	13.138
309.01	13.125
309.37	13.285
309.73	13.346
310.09	13.374
310.45	13.507
310.81	13.736
311.17	14.108
311.53	14.268
311.89	14.301
312.25	14.524
312.61	14.788
312.96	14.699
313.32	14.819
313.68	14.969
314.04	15.030
314.40	15.132
314.76	15.369
315.12	15.122
315.48	15.132
315.84	15.194
316.20	15.101
316.56	14.982
316.92	15.218
317.27	15.094
317.63	15.087
317.99	15.235
318.35	15.134
318.71	14.903
319.07	14.918
319.43	14.978
319.79	14.986
320.15	15.051
320.50	15.233
320.86	15.184
321.22	15.419
321.58	15.410
321.94	15.368
322.30	15.343
322.66	15.389
323.01	15.410
323.37	15.378
323.73	15.356
324.09	15.221
324.45	15.019
324.81	14.926
325.17	14.755
325.52	14.721
325.88	14.675
326.24	14.648
326.60	14.615
326.96	14.647
327.31	14.662
327.67	14.601
328.03	14.711
328.39	14.786
328.75	14.853
329.11	14.826
329.46	14.844
329.82	14.845
330.18	14.946
330.54	14.947
330.90	14.962
331.25	14.920
331.61	14.963
331.97	14.932
332.33	14.884
332.68	14.819
333.04	14.905
333.40	14.805
333.76	14.871
334.11	14.698
334.47	14.676
334.83	14.562
335.19	14.517
335.54	14.544
335.90	14.480
336.26	14.445
336.62	14.422
336.97	14.327
337.33	14.422
337.69	14.383
338.05	14.454
338.40	14.447
338.76	14.381
339.12	14.363
339.48	14.182
339.83	14.291
340.19	14.311
340.55	14.362
340.90	14.335
341.26	14.288
341.62	14.180
341.97	14.134
342.33	13.947
342.69	14.028
343.04	13.978
343.40	14.138
343.76	14.093
344.12	14.052
344.47	13.893
344.83	13.948
345.19	13.950
345.54	14.123
345.90	14.196
346.26	14.293
346.61	14.234
346.97	14.260
347.32	14.199
347.68	14.195
348.04	14.236
348.39	14.311
348.75	14.221
349.11	14.237
349.46	14.083
349.82	14.034
350.18	14.030
350.53	14.043
350.89	14.041
351.24	13.984
351.60	13.961
351.96	13.838
352.31	13.802
352.67	13.800
353.02	13.767
353.38	13.726
353.74	13.764
354.09	13.826
354.45	13.817
354.80	13.768
355.16	13.799
355.52	13.758
355.87	13.758
356.23	13.758
356.58	13.708
356.94	13.650
357.29	13.688
357.65	13.621
358.00	13.531
358.36	13.520
358.72	13.479
359.07	13.307
359.43	13.211
359.78	13.190
360.14	13.179
360.49	13.206
360.85	13.187
361.20	13.147
361.56	13.150
361.91	13.132
362.27	13.019
362.62	13.055
362.98	13.144
363.33	13.223
363.69	13.228
364.04	13.198
364.40	13.175
364.75	13.184
365.11	13.149
365.46	13.154
365.82	13.203
366.17	13.251
366.53	13.241
366.88	13.218
367.24	13.118
367.59	13.093
367.95	13.153
368.30	13.156
368.66	13.114
369.01	13.134
369.37	13.100
369.72	13.053
370.08	13.038
370.43	13.018
370.78	12.992
371.14	13.012
371.49	12.985
371.85	12.960
372.20	12.875
372.56	12.885
372.91	12.798
373.26	12.747
373.62	12.742
373.97	12.736
374.33	12.709
374.68	12.708
375.03	12.658
375.39	12.645
375.74	12.580
376.10	12.640
376.45	12.586
376.80	12.623
377.16	12.629
377.51	12.590
377.87	12.561
378.22	12.522
378.57	12.496
378.93	12.469
379.28	12.478
379.63	12.443
379.99	12.383
380.34	12.419
380.70	12.365
381.05	12.337
381.40	12.287
381.76	12.271
382.11	12.219
382.46	12.194
382.82	12.198
383.17	12.156
383.52	12.148
383.88	12.146
384.23	12.106
384.58	12.126
384.94	12.105
385.29	12.128
385.64	12.045
385.99	12.083
386.35	12.032
386.70	12.032
387.05	11.992
387.41	11.972
387.76	11.924
388.11	11.889
388.47	11.832
388.82	11.798
389.17	11.749
389.52	11.790
389.88	11.756
390.23	11.735
390.58	11.668
390.93	11.658
391.29	11.650
391.64	11.616
391.99	11.592
392.34	11.598
392.70	11.585
393.05	11.582
393.40	11.547
393.75	11.527
394.11	11.519
394.46	11.500
394.81	11.476
395.16	11.412
395.52	11.362
395.87	11.329
396.22	11.274
396.57	11.257
396.92	11.244
397.28	11.248
397.63	11.228
397.98	11.207
398.33	11.209
398.68	11.194
399.04	11.179
399.39	11.239
399.74	11.162
400.09	11.148
400.44	11.138
400.80	11.082
401.15	11.009
401.50	10.945
401.85	10.926
402.20	10.871
402.55	10.849
402.90	10.832
403.26	10.782
403.61	10.796
403.96	10.743
404.31	10.735
404.66	10.742
405.01	10.728
405.36	10.734
405.72	10.711
406.07	10.719
406.42	10.705
406.77	10.716
407.12	10.705
407.47	10.705
407.82	10.741
408.17	10.699
408.53	10.705
408.88	10.710
409.23	10.692
409.58	10.661
409.93	10.636
410.28	10.615
410.63	10.572
410.98	10.505
411.33	10.493
411.68	10.460
412.03	10.416
412.38	10.338
412.73	10.313
413.09	10.262
413.44	10.233
413.79	10.177
414.14	10.096
414.49	10.035
414.84	10.022
415.19	9.958
415.54	9.897
415.89	9.835
416.24	9.797
416.59	9.742
416.94	9.726
417.29	9.710
417.64	9.684
417.99	9.675
418.34	9.660
418.69	9.637
419.04	9.626
419.39	9.610
419.74	9.609
420.09	9.596
420.44	9.600
420.79	9.592
421.14	9.589
421.49	9.597
421.84	9.603
422.19	9.612
422.54	9.603
422.89	9.603
423.24	9.613
423.59	9.619
423.94	9.661
424.29	9.691
424.64	9.713
424.99	9.721
425.34	9.758
425.68	9.804
426.03	9.836
426.38	9.893
426.73	9.932
427.08	9.969
427.43	9.996
427.78	9.978
428.13	9.973
428.48	9.954
428.83	9.949
429.18	9.924
429.53	9.891
429.87	9.875
430.22	9.833
430.57	9.830
430.92	9.803
431.27	9.807
431.62	9.812
431.97	9.786
432.32	9.797
432.67	9.807
433.01	9.819
433.36	9.802
433.71	9.813
434.06	9.821
434.41	9.812
434.76	9.843
435.11	9.832
435.45	9.809
435.80	9.806
436.15	9.778
436.50	9.779
436.85	9.754
437.20	9.765
437.54	9.740
437.89	9.728
438.24	9.709
438.59	9.681
438.94	9.667
439.29	9.678
439.63	9.686
439.98	9.685
440.33	9.657
440.68	9.647
441.03	9.619
441.37	9.635
441.72	9.644
442.07	9.636
442.42	9.625
442.76	9.611
443.11	9.593
443.46	9.569
443.81	9.578
444.16	9.579
444.50	9.589
444.85	9.612
445.20	9.585
445.55	9.595
445.89	9.606
446.24	9.620
446.59	9.646
446.94	9.666
447.28	9.693
447.63	9.704
447.98	9.715
448.32	9.736
448.67	9.732
449.02	9.761
449.37	9.739
449.71	9.739
450.06	9.741
450.41	9.733
450.75	9.733
451.10	9.735
451.45	9.710
451.79	9.732
452.14	9.716
452.49	9.716
452.84	9.708
453.18	9.744
453.53	9.733
453.88	9.737
454.22	9.714
454.57	9.694
454.92	9.661
455.26	9.649
455.61	9.613
455.95	9.600
456.30	9.578
456.65	9.561
456.99	9.524
457.34	9.527
457.69	9.522
458.03	9.530
458.38	9.537
458.73	9.534
459.07	9.548
459.42	9.572
459.76	9.586
460.11	9.615
460.46	9.651
460.80	9.679
461.15	9.702
461.49	9.711
461.84	9.728
462.19	9.730
462.53	9.764
462.88	9.785
463.22	9.778
463.57	9.782
463.91	9.782
464.26	9.791
464.61	9.794
464.95	9.790
465.30	9.801
465.64	9.797
465.99	9.820
466.33	9.813
466.68	9.807
467.02	9.820
467.37	9.802
467.71	9.806
468.06	9.796
468.41	9.784
468.75	9.779
469.10	9.769
469.44	9.771
469.79	9.763
470.13	9.757
470.48	9.776
470.82	9.763
471.17	9.781
471.51	9.758
471.86	9.746
472.20	9.747
472.55	9.753
472.89	9.764
473.23	9.748
473.58	9.735
473.92	9.709
474.27	9.665
474.61	9.640
474.96	9.616
475.30	9.618
475.65	9.602
475.99	9.585
476.34	9.575
476.68	9.539
477.02	9.537
477.37	9.523
477.71	9.529
478.06	9.518
478.40	9.508
478.75	9.506
479.09	9.534
479.43	9.674
479.78	9.867
480.12	10.066
480.47	10.282
480.81	10.501
481.15	10.718
481.50	10.944
481.84	11.207
482.19	11.491
482.53	11.771
482.87	11.992
483.22	12.043
483.56	11.965
483.90	11.810
484.25	11.603
484.59	11.349
484.94	11.077
485.28	10.768
485.62	10.424
485.97	10.077
486.31	9.736
486.65	9.460
487.00	9.266
487.34	9.168
487.68	9.126
488.03	9.128
488.37	9.147
488.71	9.168
489.06	9.203
489.40	9.235
489.74	9.245
490.09	9.286
490.43	9.308
490.77	9.348
491.11	9.371
491.46	9.384
491.80	9.368
492.14	9.376
492.49	9.373
492.83	9.383
493.17	9.382
493.51	9.399
493.86	9.396
494.20	9.386
494.54	9.386
494.88	9.374
495.23	9.366
495.57	9.367
495.91	9.375
496.25	9.377
496.60	9.379
496.94	9.395
497.28	9.401
497.62	9.400
497.97	9.412
498.31	9.416
498.65	9.433
498.99	9.442
499.33	9.443
499.68	9.420
500.02	9.429
500.36	9.432
500.70	9.427
501.04	9.413
501.39	9.410
501.73	9.398
502.07	9.403
502.41	9.387
502.75	9.372
503.09	9.390
503.44	9.389
503.78	9.385
504.12	9.370
504.46	9.370
504.80	9.364
505.14	9.351
505.49	9.352
505.83	9.338
506.17	9.331
506.51	9.324
506.85	9.290
507.19	9.275
507.53	9.259
507.87	9.249
508.22	9.243
508.56	9.238
508.90	9.231
509.24	9.221
509.58	9.223
509.92	9.221
510.26	9.218
510.60	9.228
510.94	9.240
511.28	9.246
511.63	9.261
511.97	9.263
512.31	9.275
512.65	9.273
512.99	9.284
513.33	9.265
513.67	9.258
514.01	9.252
514.35	9.233
514.69	9.224
515.03	9.211
515.37	9.184
515.71	9.160
516.05	9.131
516.39	9.124
516.73	9.105
517.07	9.103
517.41	9.102
517.75	9.092
518.09	9.104
518.43	9.105
518.77	9.100
519.11	9.111
519.45	9.112
519.79	9.127
520.13	9.131
520.47	9.136
520.81	9.125
521.15	9.112
521.49	9.114
521.83	9.080
522.17	9.050
522.51	9.035
522.85	9.004
523.19	8.987
523.53	8.969
523.87	8.974
524.21	8.992
524.55	9.060
524.89	9.143
525.23	9.222
525.57	9.306
525.91	9.387
526.25	9.479
526.58	9.562
526.92	9.645
527.26	9.703
527.60	9.688
527.94	9.627
528.28	9.493
528.62	9.316
528.96	9.139
529.30	9.040
529.64	8.944
529.97	8.827
530.31	8.720
530.65	8.614
530.99	8.520
531.33	8.501
531.67	8.523
532.01	8.595
532.35	8.696
532.68	8.790
533.02	8.795
533.36	8.797
533.70	8.784
534.04	8.774
534.38	8.758
534.71	8.747
535.05	8.742
535.39	8.749
535.73	8.732
536.07	8.722
536.41	8.716
536.74	8.712
537.08	8.708
537.42	8.709
537.76	8.698
538.10	8.696
538.43	8.688
538.77	8.678
539.11	8.665
539.45	8.676
539.79	8.683
540.12	8.686
540.46	8.690
540.80	8.682
541.14	8.681
541.47	8.680
541.81	8.672
542.15	8.676
542.49	8.666
542.82	8.648
543.16	8.627
543.50	8.610
543.84	8.595
544.17	8.584
544.51	8.567
544.85	8.549
545.18	8.537
545.52	8.539
545.86	8.536
546.20	8.558
546.53	8.579
546.87	8.593
547.21	8.601
547.54	8.625
547.88	8.625
548.22	8.622
548.55	8.642
548.89	8.670
549.23	8.665
549.56	8.664
549.90	8.633
550.24	8.614
550.57	8.612
550.91	8.621
551.25	8.597
551.58	8.591
551.92	8.604
552.26	8.609
552.59	8.594
552.93	8.604
553.27	8.616
553.60	8.632
553.94	8.642
554.27	8.647
554.61	8.622
554.95	8.641
555.28	8.632
555.62	8.621
555.95	8.614
556.29	8.604
556.63	8.591
556.96	8.607
557.30	8.600
557.63	8.598
557.97	8.584
558.31	8.584
558.64	8.560
558.98	8.578
559.31	8.578
559.65	8.560
559.98	8.573
560.32	8.579
560.65	8.544
560.99	8.525
561.33	8.493
561.66	8.482
562.00	8.465
562.33	8.463
562.67	8.440
563.00	8.432
563.34	8.416
563.67	8.397
564.01	8.370
564.34	8.366
564.68	8.367
565.01	8.367
565.35	8.346
565.68	8.358
566.02	8.353
566.35	8.360
566.69	8.340
567.02	8.349
567.36	8.335
567.69	8.339
568.03	8.329
568.36	8.311
568.69	8.310
569.03	8.303
569.36	8.278
569.70	8.256
570.03	8.208
570.37	8.207
570.70	8.185
571.04	8.177
571.37	8.160
571.70	8.163
572.04	8.158
572.37	8.151
572.71	8.159
573.04	8.146
573.37	8.146
573.71	8.162
574.04	8.161
574.38	8.166
574.71	8.174
575.04	8.178
575.38	8.143
575.71	8.157
576.05	8.150
576.38	8.142
576.71	8.180
577.05	8.207
577.38	8.230
577.71	8.237
578.05	8.242
578.38	8.229
578.71	8.233
579.05	8.257
579.38	8.242
579.71	8.255
580.05	8.282
580.38	8.284
580.71	8.251
581.05	8.234
581.38	8.244
581.71	8.238
582.05	8.260
582.38	8.270
582.71	8.261
583.04	8.258
583.38	8.270
583.71	8.254
584.04	8.238
584.38	8.268
584.71	8.279
585.04	8.236
585.37	8.228
585.71	8.210
586.04	8.195
586.37	8.185
586.70	8.175
587.04	8.162
587.37	8.146
587.70	8.151
588.03	8.138
588.37	8.116
588.70	8.158
589.03	8.166
589.36	8.175
589.69	8.170
590.03	8.192
590.36	8.224
590.69	8.242
591.02	8.259
591.35	8.227
591.69	8.227
592.02	8.224
592.35	8.188
592.68	8.172
593.01	8.140
593.35	8.116
593.68	8.087
594.01	8.045
594.34	8.016
594.67	7.993
595.00	7.999
595.34	7.984
595.67	7.984
596.00	7.986
596.33	7.981
596.66	8.001
596.99	8.015
597.32	8.020
597.65	8.051
597.99	8.052
598.32	8.053
598.65	8.067
598.98	8.074
599.31	8.071
599.64	8.055
599.97	8.046
600.30	8.013
600.63	8.013
600.96	8.006
601.30	7.972
601.63	7.965
601.96	7.951
602.29	7.921
602.62	7.897
602.95	7.904
603.28	7.904
603.61	7.930
603.94	7.954
604.27	7.954
604.60	7.967
604.93	7.968
605.26	7.974
605.59	7.984
605.92	8.021
606.25	8.041
606.58	8.067
606.91	8.067
607.24	8.050
607.57	8.055
607.90	8.046
608.23	8.047
608.56	8.070
608.89	8.091
609.22	8.091
609.55	8.062
609.88	8.075
610.21	8.069
610.54	8.094
610.87	8.109
611.20	8.129
611.53	8.143
611.86	8.158
612.19	8.186
612.52	8.182
612.85	8.218
613.18	8.227
613.51	8.214
613.84	8.213
614.17	8.214
614.49	8.216
614.82	8.174
615.15	8.167
615.48	8.131
615.81	8.093
616.14	8.072
616.47	8.033
616.80	8.041
617.13	8.045
617.46	8.036
617.78	8.041
618.11	8.033
618.44	8.046
618.77	8.074
619.10	8.086
619.43	8.101
619.76	8.067
620.09	8.106
620.41	8.111
620.74	8.133
621.07	8.142
621.40	8.139
621.73	8.151
622.06	8.164
622.38	8.160
622.71	8.168
623.04	8.171
623.37	8.198
623.70	8.170
624.02	8.127
624.35	8.081
624.68	8.044
625.01	8.014
625.34	7.984
625.66	7.948
625.99	7.941
626.32	7.933
626.65	7.912
626.98	7.923
627.30	7.923
627.63	7.963
627.96	7.975
628.29	7.992
628.61	8.008
628.94	8.020
629.27	8.037
629.60	8.032
629.92	8.052
630.25	8.089
630.58	8.095
630.91	8.104
631.23	8.099
631.56	8.118
631.89	8.105
632.21	8.123
632.54	8.151
632.87	8.147
633.19	8.156
633.52	8.150
633.85	8.151
634.18	8.125
634.50	8.115
634.83	8.092
635.16	8.056
635.48	8.070
635.81	8.051
636.14	8.050
636.46	8.054
636.79	8.032
637.11	8.048
637.44	8.027
637.77	8.045
638.09	8.071
638.42	8.091
638.75	8.098
639.07	8.082
639.40	8.079
639.73	8.063
640.05	8.047
640.38	8.039
640.70	8.004
641.03	7.995
641.36	8.019
641.68	8.025
642.01	8.040
642.33	8.068
642.66	8.075
642.98	8.107
643.31	8.097
643.64	8.089
643.96	8.102
644.29	8.074
644.61	8.053
644.94	8.031
645.26	8.001
645.59	7.996
645.91	7.972
646.24	7.986
646.56	7.955
646.89	7.948
647.22	7.939
647.54	7.913
647.87	7.956
648.19	7.969
648.52	7.940
648.84	7.947
649.17	7.927
649.49	7.934
649.82	7.940
650.14	7.963
650.47	7.964
650.79	8.022
651.11	8.040
651.44	8.067
651.76	8.091
652.09	8.115
