OOIBase32 Version 2.0.0.6 Data File
++++++++++++++++++++++++++++++++++++
Date: 01-19-2012, 17:32:10
User: Valued Ocean Optics Customer
Spectrometer Serial Number: USB2E2917
Spectrometer Channel: Master
Integration Time (msec): 6
Spectra Averaged: 10
Boxcar Smoothing: 5
Correct for Electrical Dark: Enabled
Time Normalized: Disabled
Dual-beam Reference: Disabled
Reference Channel: Master
Temperature: Not acquired
Spectrometer Type: S2000
ADC Type: USB2000
Number of Pixels in File: 2048
Graph Title: 
>>>>>Begin Spectral Data<<<<<
180.30	0.000
180.67	0.000
181.03	37.622
181.40	-45.256
181.77	36.546
182.14	-139.753
182.51	74.871
182.88	191.247
183.25	143.406
183.62	93.892
183.99	-317.118
184.36	104.085
184.73	299.439
185.10	161.717
185.46	66.747
185.83	75.194
186.20	221.095
186.57	107.574
186.94	146.083
187.31	2.489
187.68	37.621
188.05	21.235
188.42	24.431
188.78	19.610
189.15	11.318
189.52	21.471
189.89	8.842
190.26	3.306
190.63	12.809
191.00	15.110
191.37	17.467
191.73	18.757
192.10	5.332
192.47	-3.472
192.84	-1.393
193.21	-9.305
193.58	-34.837
193.94	-33.760
194.31	-29.116
194.68	-28.255
195.05	-50.122
195.42	-58.804
195.79	-46.632
196.15	-19.168
196.52	-9.264
196.89	-11.698
197.26	-7.480
197.63	-9.695
198.00	-2.369
198.36	1.762
198.73	-3.658
199.10	12.030
199.47	11.116
199.84	-5.707
200.20	-9.945
200.57	-17.567
200.94	-0.319
201.31	17.015
201.68	22.873
202.04	18.626
202.41	19.343
202.78	13.672
203.15	13.315
203.51	14.566
203.88	25.218
204.25	33.009
204.62	32.913
204.98	11.663
205.35	1.019
205.72	-5.481
206.09	-14.508
206.46	-7.494
206.82	10.326
207.19	0.505
207.56	-2.722
207.92	10.783
208.29	-16.254
208.66	-25.662
209.03	-8.052
209.39	-19.455
209.76	-19.022
210.13	-11.231
210.50	-4.636
210.86	-5.535
211.23	4.139
211.60	9.720
211.96	1.324
212.33	14.299
212.70	16.159
213.07	17.016
213.43	22.242
213.80	17.095
214.17	21.474
214.53	16.347
214.90	9.439
215.27	7.064
215.63	3.606
216.00	2.099
216.37	-4.953
216.74	-0.563
217.10	-11.441
217.47	-13.159
217.84	-5.078
218.20	-0.519
218.57	-2.478
218.94	-10.496
219.30	-15.561
219.67	-16.752
220.04	-20.820
220.40	-16.988
220.77	-16.293
221.13	-14.364
221.50	-16.676
221.87	-18.459
222.23	-23.311
222.60	-21.651
222.97	-15.511
223.33	-10.388
223.70	-8.684
224.07	-6.167
224.43	-4.619
224.80	-4.776
225.16	0.262
225.53	4.061
225.90	4.170
226.26	5.283
226.63	5.569
226.99	6.657
227.36	6.698
227.73	6.712
228.09	6.040
228.46	6.280
228.82	7.033
229.19	5.241
229.56	2.713
229.92	2.244
230.29	1.487
230.65	1.923
231.02	0.433
231.38	0.869
231.75	0.603
232.12	0.479
232.48	0.110
232.85	0.911
233.21	1.678
233.58	1.128
233.94	2.814
234.31	3.262
234.68	2.001
235.04	3.481
235.41	1.485
235.77	0.958
236.14	3.129
236.50	3.009
236.87	2.104
237.23	3.031
237.60	4.342
237.96	4.147
238.33	4.671
238.69	5.293
239.06	4.680
239.42	5.294
239.79	5.282
240.15	4.936
240.52	5.173
240.88	5.193
241.25	5.110
241.61	5.093
241.98	4.934
242.34	4.542
242.71	4.399
243.07	4.493
243.44	4.265
243.80	4.618
244.17	4.243
244.53	4.255
244.90	4.143
245.26	4.128
245.63	4.176
245.99	4.189
246.36	4.379
246.72	4.446
247.09	4.582
247.45	4.659
247.81	4.482
248.18	4.504
248.54	4.269
248.91	4.410
249.27	4.213
249.64	3.870
250.00	3.816
250.36	3.537
250.73	3.233
251.09	2.976
251.46	3.024
251.82	2.990
252.19	3.321
252.55	3.186
252.91	2.986
253.28	3.094
253.64	3.188
254.01	3.117
254.37	3.201
254.73	3.316
255.10	3.556
255.46	3.680
255.83	3.447
256.19	3.470
256.55	3.664
256.92	3.750
257.28	3.570
257.65	3.610
258.01	3.846
258.37	3.906
258.74	3.875
259.10	3.657
259.46	3.494
259.83	3.732
260.19	3.656
260.55	3.547
260.92	3.362
261.28	3.353
261.64	3.367
262.01	3.199
262.37	3.024
262.73	3.225
263.10	3.442
263.46	3.708
263.82	3.319
264.19	3.054
264.55	3.119
264.91	3.448
265.28	3.653
265.64	3.672
266.00	3.633
266.37	3.748
266.73	3.654
267.09	3.616
267.46	3.361
267.82	3.711
268.18	3.963
268.54	3.901
268.91	3.902
269.27	3.752
269.63	3.629
270.00	3.722
270.36	3.589
270.72	3.748
271.08	3.894
271.45	4.164
271.81	3.916
272.17	4.110
272.53	4.220
272.90	4.133
273.26	4.020
273.62	3.970
273.98	3.848
274.35	3.883
274.71	3.796
275.07	3.548
275.43	3.244
275.80	3.552
276.16	3.362
276.52	3.410
276.88	3.388
277.25	3.641
277.61	3.822
277.97	3.703
278.33	3.809
278.69	3.483
279.06	3.419
279.42	3.538
279.78	3.194
280.14	3.112
280.50	3.081
280.87	3.199
281.23	3.076
281.59	3.069
281.95	3.305
282.31	3.201
282.68	3.340
283.04	3.331
283.40	3.260
283.76	3.349
284.12	3.530
284.48	3.496
284.85	3.269
285.21	3.217
285.57	3.164
285.93	2.940
286.29	2.749
286.65	2.830
287.02	2.971
287.38	3.059
287.74	3.210
288.10	3.129
288.46	3.263
288.82	3.517
289.18	3.712
289.54	3.785
289.91	4.009
290.27	4.142
290.63	4.130
290.99	4.135
291.35	4.152
291.71	4.065
292.07	3.961
292.43	3.888
292.79	3.806
293.16	3.818
293.52	3.748
293.88	3.858
294.24	4.104
294.60	4.167
294.96	4.212
295.32	4.242
295.68	4.342
296.04	4.581
296.40	4.655
296.76	4.829
297.12	4.954
297.49	5.343
297.85	5.363
298.21	5.449
298.57	5.775
298.93	5.900
299.29	6.265
299.65	6.507
300.01	6.769
300.37	7.154
300.73	7.451
301.09	7.634
301.45	7.692
301.81	7.743
302.17	8.026
302.53	7.906
302.89	8.271
303.25	8.418
303.61	8.537
303.97	8.864
304.33	9.010
304.69	9.239
305.05	9.597
305.41	9.876
305.77	10.481
306.13	10.688
306.49	11.145
306.85	11.222
307.21	11.385
307.57	11.584
307.93	11.743
308.29	11.914
308.65	12.033
309.01	12.180
309.37	12.305
309.73	12.332
310.09	12.436
310.45	12.552
310.81	12.788
311.17	13.177
311.53	13.479
311.89	13.445
312.25	13.605
312.61	13.884
312.96	13.948
313.32	14.272
313.68	14.388
314.04	14.538
314.40	14.676
314.76	14.753
315.12	14.569
315.48	14.539
315.84	14.607
316.20	14.745
316.56	14.728
316.92	14.858
317.27	14.745
317.63	14.862
317.99	15.056
318.35	15.037
318.71	14.905
319.07	14.876
319.43	14.868
319.79	14.938
320.15	14.926
320.50	15.066
320.86	14.988
321.22	14.933
321.58	14.794
321.94	14.567
322.30	14.596
322.66	14.728
323.01	14.886
323.37	14.870
323.73	14.902
324.09	14.819
324.45	14.636
324.81	14.599
325.17	14.521
325.52	14.525
325.88	14.551
326.24	14.507
326.60	14.512
326.96	14.391
327.31	14.307
327.67	14.287
328.03	14.340
328.39	14.328
328.75	14.352
329.11	14.257
329.46	14.265
329.82	14.327
330.18	14.294
330.54	14.306
330.90	14.211
331.25	14.171
331.61	14.175
331.97	14.090
332.33	13.991
332.68	13.875
333.04	14.025
333.40	14.026
333.76	13.979
334.11	13.798
334.47	13.641
334.83	13.695
335.19	13.729
335.54	13.584
335.90	13.597
336.26	13.624
336.62	13.604
336.97	13.578
337.33	13.497
337.69	13.385
338.05	13.488
338.40	13.528
338.76	13.410
339.12	13.355
339.48	13.288
339.83	13.208
340.19	13.160
340.55	13.183
340.90	13.105
341.26	13.127
341.62	13.083
341.97	13.011
342.33	12.913
342.69	12.902
343.04	12.895
343.40	12.893
343.76	12.785
344.12	12.712
344.47	12.560
344.83	12.533
345.19	12.476
345.54	12.518
345.90	12.472
346.26	12.431
346.61	12.450
346.97	12.407
347.32	12.360
347.68	12.364
348.04	12.367
348.39	12.467
348.75	12.384
349.11	12.362
349.46	12.316
349.82	12.271
350.18	12.190
350.53	12.082
350.89	11.999
351.24	12.004
351.60	11.957
351.96	11.872
352.31	11.738
352.67	11.673
353.02	11.594
353.38	11.553
353.74	11.544
354.09	11.576
354.45	11.495
354.80	11.435
355.16	11.419
355.52	11.329
355.87	11.243
356.23	11.257
356.58	11.272
356.94	11.161
357.29	11.104
357.65	11.032
358.00	10.953
358.36	10.980
358.72	10.980
359.07	10.879
359.43	10.875
359.78	10.869
360.14	10.796
360.49	10.760
360.85	10.759
361.20	10.792
361.56	10.798
361.91	10.760
362.27	10.692
362.62	10.652
362.98	10.652
363.33	10.653
363.69	10.689
364.04	10.657
364.40	10.617
364.75	10.580
365.11	10.448
365.46	10.384
365.82	10.409
366.17	10.408
366.53	10.395
366.88	10.294
367.24	10.256
367.59	10.190
367.95	10.203
368.30	10.212
368.66	10.221
369.01	10.197
369.37	10.199
369.72	10.145
370.08	10.066
370.43	10.004
370.78	10.012
371.14	9.980
371.49	9.897
371.85	9.861
372.20	9.777
372.56	9.775
372.91	9.711
373.26	9.662
373.62	9.636
373.97	9.655
374.33	9.595
374.68	9.531
375.03	9.464
375.39	9.446
375.74	9.366
376.10	9.328
376.45	9.215
376.80	9.197
377.16	9.119
377.51	9.059
377.87	9.019
378.22	8.982
378.57	8.955
378.93	8.939
379.28	8.955
379.63	8.926
379.99	8.886
380.34	8.892
380.70	8.895
381.05	8.886
381.40	8.896
381.76	8.844
382.11	8.822
382.46	8.801
382.82	8.738
383.17	8.617
383.52	8.609
383.88	8.570
384.23	8.538
384.58	8.517
384.94	8.549
385.29	8.488
385.64	8.435
385.99	8.434
386.35	8.380
386.70	8.346
387.05	8.327
387.41	8.284
387.76	8.242
388.11	8.200
388.47	8.132
388.82	8.030
389.17	8.006
389.52	7.963
389.88	7.888
390.23	7.879
390.58	7.825
390.93	7.823
391.29	7.769
391.64	7.721
391.99	7.678
392.34	7.634
392.70	7.606
393.05	7.544
393.40	7.504
393.75	7.492
394.11	7.442
394.46	7.399
394.81	7.362
395.16	7.312
395.52	7.296
395.87	7.247
396.22	7.222
396.57	7.187
396.92	7.156
397.28	7.156
397.63	7.096
397.98	7.064
398.33	7.092
398.68	7.012
399.04	6.999
399.39	6.953
399.74	6.891
400.09	6.811
400.44	6.794
400.80	6.735
401.15	6.678
401.50	6.678
401.85	6.631
402.20	6.556
402.55	6.539
402.90	6.502
403.26	6.461
403.61	6.475
403.96	6.459
404.31	6.427
404.66	6.414
405.01	6.386
405.36	6.354
405.72	6.342
406.07	6.317
406.42	6.320
406.77	6.320
407.12	6.295
407.47	6.272
407.82	6.262
408.17	6.229
408.53	6.210
408.88	6.205
409.23	6.124
409.58	6.093
409.93	6.063
410.28	6.013
410.63	5.983
410.98	5.935
411.33	5.899
411.68	5.862
412.03	5.817
412.38	5.782
412.73	5.759
413.09	5.764
413.44	5.744
413.79	5.730
414.14	5.683
414.49	5.645
414.84	5.630
415.19	5.601
415.54	5.570
415.89	5.516
416.24	5.496
416.59	5.447
416.94	5.415
417.29	5.380
417.64	5.332
417.99	5.315
418.34	5.289
418.69	5.278
419.04	5.248
419.39	5.222
419.74	5.224
420.09	5.200
420.44	5.204
420.79	5.209
421.14	5.198
421.49	5.199
421.84	5.202
422.19	5.191
422.54	5.188
422.89	5.186
423.24	5.187
423.59	5.176
423.94	5.181
424.29	5.170
424.64	5.157
424.99	5.153
425.34	5.175
425.68	5.184
426.03	5.205
426.38	5.206
426.73	5.213
427.08	5.230
427.43	5.256
427.78	5.249
428.13	5.261
428.48	5.250
428.83	5.252
429.18	5.235
429.53	5.217
429.87	5.198
430.22	5.201
430.57	5.200
430.92	5.191
431.27	5.191
431.62	5.184
431.97	5.161
432.32	5.162
432.67	5.157
433.01	5.150
433.36	5.142
433.71	5.141
434.06	5.123
434.41	5.121
434.76	5.141
435.11	5.158
435.45	5.156
435.80	5.146
436.15	5.137
436.50	5.152
436.85	5.148
437.20	5.145
437.54	5.130
437.89	5.134
438.24	5.129
438.59	5.124
438.94	5.103
439.29	5.110
439.63	5.120
439.98	5.129
440.33	5.110
440.68	5.104
441.03	5.108
441.37	5.127
441.72	5.119
442.07	5.118
442.42	5.098
442.76	5.082
443.11	5.072
443.46	5.065
443.81	5.057
444.16	5.059
444.50	5.061
444.85	5.061
445.20	5.046
445.55	5.055
445.89	5.051
446.24	5.056
446.59	5.064
446.94	5.051
447.28	5.073
447.63	5.095
447.98	5.111
448.32	5.154
448.67	5.157
449.02	5.157
449.37	5.163
449.71	5.168
450.06	5.164
450.41	5.171
450.75	5.191
451.10	5.182
451.45	5.165
451.79	5.159
452.14	5.117
452.49	5.105
452.84	5.104
453.18	5.095
453.53	5.098
453.88	5.102
454.22	5.078
454.57	5.074
454.92	5.067
455.26	5.043
455.61	5.028
455.95	4.999
456.30	4.987
456.65	4.981
456.99	4.972
457.34	4.964
457.69	4.960
458.03	4.965
458.38	4.961
458.73	4.943
459.07	4.953
459.42	4.963
459.76	4.985
460.11	5.015
460.46	5.041
460.80	5.040
461.15	5.068
461.49	5.089
461.84	5.111
462.19	5.124
462.53	5.151
462.88	5.173
463.22	5.172
463.57	5.199
463.91	5.199
464.26	5.207
464.61	5.239
464.95	5.232
465.30	5.225
465.64	5.227
465.99	5.240
466.33	5.247
466.68	5.248
467.02	5.261
467.37	5.259
467.71	5.276
468.06	5.292
468.41	5.296
468.75	5.308
469.10	5.311
469.44	5.323
469.79	5.341
470.13	5.361
470.48	5.371
470.82	5.397
471.17	5.400
471.51	5.385
471.86	5.371
472.20	5.379
472.55	5.369
472.89	5.402
473.23	5.390
473.58	5.394
473.92	5.383
474.27	5.383
474.61	5.371
474.96	5.364
475.30	5.363
475.65	5.359
475.99	5.354
476.34	5.363
476.68	5.342
477.02	5.345
477.37	5.320
477.71	5.310
478.06	5.287
478.40	5.271
478.75	5.278
479.09	5.295
479.43	5.364
479.78	5.457
480.12	5.572
480.47	5.688
480.81	5.799
481.15	5.924
481.50	6.041
481.84	6.180
482.19	6.328
482.53	6.467
482.87	6.575
483.22	6.599
483.56	6.561
483.90	6.467
484.25	6.347
484.59	6.212
484.94	6.059
485.28	5.898
485.62	5.718
485.97	5.528
486.31	5.352
486.65	5.213
487.00	5.126
487.34	5.071
487.68	5.058
488.03	5.060
488.37	5.084
488.71	5.105
489.06	5.132
489.40	5.160
489.74	5.184
490.09	5.211
490.43	5.231
490.77	5.242
491.11	5.264
491.46	5.275
491.80	5.293
492.14	5.298
492.49	5.321
492.83	5.342
493.17	5.363
493.51	5.386
493.86	5.411
494.20	5.448
494.54	5.486
494.88	5.508
495.23	5.530
495.57	5.543
495.91	5.560
496.25	5.568
496.60	5.584
496.94	5.605
497.28	5.638
497.62	5.663
497.97	5.685
498.31	5.705
498.65	5.744
498.99	5.782
499.33	5.820
499.68	5.860
500.02	5.907
500.36	5.961
500.70	6.008
501.04	6.039
501.39	6.079
501.73	6.110
502.07	6.164
502.41	6.201
502.75	6.227
503.09	6.274
503.44	6.304
503.78	6.345
504.12	6.363
504.46	6.405
504.80	6.458
505.14	6.501
505.49	6.530
505.83	6.564
506.17	6.591
506.51	6.652
506.85	6.691
507.19	6.720
507.53	6.755
507.87	6.805
508.22	6.841
508.56	6.880
508.90	6.916
509.24	6.973
509.58	7.021
509.92	7.070
510.26	7.111
510.60	7.156
510.94	7.216
511.28	7.257
511.63	7.314
511.97	7.360
512.31	7.414
512.65	7.469
512.99	7.529
513.33	7.557
513.67	7.604
514.01	7.649
514.35	7.676
514.69	7.713
515.03	7.745
515.37	7.769
515.71	7.777
516.05	7.789
516.39	7.809
516.73	7.812
517.07	7.827
517.41	7.847
517.75	7.866
518.09	7.896
518.43	7.915
518.77	7.944
519.11	7.959
519.45	8.008
519.79	8.032
520.13	8.062
520.47	8.099
520.81	8.144
521.15	8.163
521.49	8.185
521.83	8.200
522.17	8.218
522.51	8.220
522.85	8.224
523.19	8.227
523.53	8.251
523.87	8.274
524.21	8.320
524.55	8.395
524.89	8.487
525.23	8.573
525.57	8.656
525.91	8.739
526.25	8.827
526.58	8.927
526.92	9.007
527.26	9.050
527.60	9.034
527.94	8.956
528.28	8.827
528.62	8.656
528.96	8.487
529.30	8.405
529.64	8.317
529.97	8.213
530.31	8.100
530.65	7.998
530.99	7.920
531.33	7.907
531.67	7.952
532.01	8.034
532.35	8.152
532.68	8.248
533.02	8.232
533.36	8.222
533.70	8.220
534.04	8.217
534.38	8.212
534.71	8.209
535.05	8.210
535.39	8.209
535.73	8.189
536.07	8.171
536.41	8.173
536.74	8.183
537.08	8.173
537.42	8.179
537.76	8.164
538.10	8.164
538.43	8.162
538.77	8.150
539.11	8.144
539.45	8.146
539.79	8.141
540.12	8.132
540.46	8.129
540.80	8.120
541.14	8.105
541.47	8.094
541.81	8.079
542.15	8.061
542.49	8.048
542.82	8.036
543.16	8.026
543.50	8.023
543.84	8.011
544.17	8.013
544.51	8.026
544.85	8.024
545.18	8.018
545.52	8.010
545.86	8.019
546.20	8.045
546.53	8.043
546.87	8.045
547.21	8.050
547.54	8.046
547.88	8.032
548.22	8.030
548.55	8.036
548.89	8.062
549.23	8.068
549.56	8.064
549.90	8.048
550.24	8.060
550.57	8.061
550.91	8.066
551.25	8.062
551.58	8.075
551.92	8.082
552.26	8.083
552.59	8.063
552.93	8.073
553.27	8.080
553.60	8.094
553.94	8.092
554.27	8.096
554.61	8.082
554.95	8.114
555.28	8.105
555.62	8.101
555.95	8.096
556.29	8.105
556.63	8.093
556.96	8.115
557.30	8.103
557.63	8.077
557.97	8.078
558.31	8.071
558.64	8.056
558.98	8.052
559.31	8.050
559.65	8.049
559.98	8.056
560.32	8.075
560.65	8.052
560.99	8.038
561.33	8.055
561.66	8.030
562.00	8.041
562.33	8.060
562.67	8.061
563.00	8.067
563.34	8.054
563.67	8.054
564.01	8.032
564.34	8.025
564.68	8.034
565.01	8.029
565.35	8.043
565.68	8.036
566.02	8.011
566.35	8.022
566.69	8.008
567.02	8.020
567.36	7.997
567.69	8.004
568.03	8.006
568.36	8.013
568.69	8.006
569.03	7.997
569.36	8.003
569.70	8.006
570.03	7.992
570.37	7.975
570.70	7.958
571.04	7.983
571.37	7.984
571.70	7.990
572.04	7.970
572.37	7.969
572.71	7.977
573.04	7.969
573.37	7.970
573.71	7.981
574.04	8.011
574.38	8.046
574.71	8.053
575.04	8.058
575.38	8.051
575.71	8.094
576.05	8.120
576.38	8.130
576.71	8.156
577.05	8.187
577.38	8.190
577.71	8.221
578.05	8.220
578.38	8.227
578.71	8.248
579.05	8.287
579.38	8.280
579.71	8.301
580.05	8.334
580.38	8.335
580.71	8.332
581.05	8.360
581.38	8.364
581.71	8.382
582.05	8.409
582.38	8.431
582.71	8.439
583.04	8.462
583.38	8.457
583.71	8.461
584.04	8.482
584.38	8.502
584.71	8.515
585.04	8.504
585.37	8.522
585.71	8.529
586.04	8.537
586.37	8.547
586.70	8.537
587.04	8.565
587.37	8.567
587.70	8.596
588.03	8.611
588.37	8.624
588.70	8.678
589.03	8.686
589.36	8.706
589.69	8.700
590.03	8.744
590.36	8.777
590.69	8.808
591.02	8.817
591.35	8.822
591.69	8.841
592.02	8.842
592.35	8.835
592.68	8.857
593.01	8.854
593.35	8.864
593.68	8.845
594.01	8.830
594.34	8.815
594.67	8.839
595.00	8.834
595.34	8.858
595.67	8.876
596.00	8.879
596.33	8.896
596.66	8.922
596.99	8.940
597.32	8.964
597.65	9.002
597.99	9.039
598.32	9.060
598.65	9.100
598.98	9.105
599.31	9.135
599.64	9.154
599.97	9.180
600.30	9.193
600.63	9.218
600.96	9.222
601.30	9.217
601.63	9.224
601.96	9.208
602.29	9.207
602.62	9.218
602.95	9.225
603.28	9.242
603.61	9.252
603.94	9.262
604.27	9.270
604.60	9.296
604.93	9.328
605.26	9.333
605.59	9.341
605.92	9.383
606.25	9.407
606.58	9.442
606.91	9.454
607.24	9.443
607.57	9.441
607.90	9.453
608.23	9.458
608.56	9.469
608.89	9.487
609.22	9.532
609.55	9.514
609.88	9.517
610.21	9.503
610.54	9.521
610.87	9.586
611.20	9.652
611.53	9.684
611.86	9.688
612.19	9.733
612.52	9.772
612.85	9.813
613.18	9.843
613.51	9.869
613.84	9.904
614.17	9.940
614.49	9.905
614.82	9.906
615.15	9.930
615.48	9.936
615.81	9.923
616.14	9.925
616.47	9.864
616.80	9.864
617.13	9.864
617.46	9.852
617.78	9.827
618.11	9.851
618.44	9.840
618.77	9.843
619.10	9.880
619.43	9.871
619.76	9.869
620.09	9.939
620.41	9.949
620.74	9.955
621.07	9.981
621.40	10.000
621.73	9.990
622.06	9.979
622.38	9.968
622.71	9.953
623.04	9.958
623.37	9.961
623.70	9.939
624.02	9.924
624.35	9.886
624.68	9.861
625.01	9.838
625.34	9.840
625.66	9.837
625.99	9.831
626.32	9.840
626.65	9.832
626.98	9.822
627.30	9.836
627.63	9.848
627.96	9.889
628.29	9.908
628.61	9.897
628.94	9.890
629.27	9.901
629.60	9.899
629.92	9.897
630.25	9.926
630.58	9.924
630.91	9.901
631.23	9.899
631.56	9.884
631.89	9.874
632.21	9.904
632.54	9.894
632.87	9.878
633.19	9.908
633.52	9.926
633.85	9.905
634.18	9.900
634.50	9.899
634.83	9.905
635.16	9.908
635.48	9.903
635.81	9.894
636.14	9.932
636.46	9.954
636.79	9.941
637.11	9.932
637.44	9.954
637.77	9.966
638.09	9.992
638.42	9.994
638.75	9.994
639.07	9.984
639.40	10.016
639.73	9.998
640.05	9.981
640.38	9.964
640.70	9.957
641.03	9.956
641.36	9.974
641.68	9.979
642.01	9.975
642.33	9.998
642.66	10.035
642.98	10.008
643.31	10.007
643.64	10.013
643.96	10.033
644.29	10.008
644.61	9.962
644.94	9.952
645.26	9.954
645.59	9.953
645.91	9.922
646.24	9.913
646.56	9.862
646.89	9.876
647.22	9.878
647.54	9.831
647.87	9.868
648.19	9.854
648.52	9.862
648.84	9.833
649.17	9.805
649.49	9.786
649.82	9.761
650.14	9.859
650.47	9.831
650.79	9.852
651.11	9.867
651.44	9.866
651.76	9.920
652.09	9.912
652.41	9.912
652.74	9.961
653.06	10.023
653.39	10.047
653.71	10.018
654.04	9.984
654.36	9.957
654.68	9.927
655.01	9.866
655.33	9.831
