OOIBase32 Version 2.0.0.6 Data File
++++++++++++++++++++++++++++++++++++
Date: 01-20-2012, 22:30:16
User: Valued Ocean Optics Customer
Spectrometer Serial Number: USB2E2917
Spectrometer Channel: Master
Integration Time (msec): 4
Spectra Averaged: 10
Boxcar Smoothing: 5
Correct for Electrical Dark: Enabled
Time Normalized: Disabled
Dual-beam Reference: Disabled
Reference Channel: Master
Temperature: Not acquired
Spectrometer Type: S2000
ADC Type: USB2000
Number of Pixels in File: 2048
Graph Title: 
>>>>>Begin Spectral Data<<<<<
180.30	0.000
180.67	0.000
181.03	232.075
181.40	55.977
181.77	47.237
182.14	331.455
182.51	93.550
182.88	210.011
183.25	24.017
183.62	36.756
183.99	90.544
184.36	172.964
184.73	326.186
185.10	80.745
185.46	118.475
185.83	29.957
186.20	-282.582
186.57	60.788
186.94	228.363
187.31	8.337
187.68	-1690.875
188.05	162.738
188.42	57.025
188.78	72.645
189.15	52.087
189.52	41.826
189.89	25.418
190.26	32.700
190.63	58.404
191.00	50.149
191.37	36.871
191.73	68.090
192.10	66.569
192.47	78.091
192.84	67.112
193.21	77.244
193.58	61.715
193.94	61.899
194.31	76.930
194.68	46.812
195.05	51.337
195.42	37.532
195.79	14.816
196.15	-1.917
196.52	-12.344
196.89	-37.604
197.26	-43.415
197.63	-15.813
198.00	-11.452
198.36	-30.606
198.73	-21.103
199.10	-10.701
199.47	1.458
199.84	4.389
200.20	11.714
200.57	11.039
200.94	8.502
201.31	12.995
201.68	1.969
202.04	-1.635
202.41	6.220
202.78	-1.006
203.15	-4.852
203.51	0.752
203.88	33.481
204.25	45.552
204.62	54.825
204.98	61.232
205.35	50.556
205.72	48.554
206.09	61.188
206.46	57.968
206.82	57.674
207.19	59.226
207.56	47.861
207.92	28.532
208.29	8.875
208.66	-3.646
209.03	-2.651
209.39	8.576
209.76	24.637
210.13	25.985
210.50	26.231
210.86	35.962
211.23	34.389
211.60	29.045
211.96	21.314
212.33	38.330
212.70	45.285
213.07	44.723
213.43	40.130
213.80	33.750
214.17	38.207
214.53	36.266
214.90	27.770
215.27	36.989
215.63	45.297
216.00	46.029
216.37	49.245
216.74	46.419
217.10	47.606
217.47	33.909
217.84	24.162
218.20	18.388
218.57	20.307
218.94	17.100
219.30	5.594
219.67	9.522
220.04	16.262
220.40	9.946
220.77	3.942
221.13	-2.106
221.50	9.909
221.87	17.571
222.23	19.877
222.60	16.710
222.97	20.688
223.33	22.095
223.70	15.877
224.07	13.927
224.43	9.896
224.80	10.218
225.16	9.671
225.53	9.434
225.90	8.169
226.26	7.444
226.63	7.349
226.99	6.069
227.36	5.788
227.73	6.670
228.09	6.795
228.46	8.104
228.82	8.297
229.19	7.817
229.56	6.456
229.92	5.552
230.29	4.738
230.65	6.414
231.02	7.009
231.38	6.704
231.75	5.154
232.12	4.547
232.48	4.248
232.85	4.795
233.21	6.273
233.58	6.163
233.94	6.790
234.31	7.225
234.68	5.920
235.04	5.768
235.41	4.791
235.77	6.757
236.14	7.157
236.50	6.145
236.87	6.538
237.23	6.276
237.60	7.235
237.96	7.934
238.33	8.343
238.69	8.303
239.06	7.767
239.42	8.046
239.79	7.400
240.15	7.460
240.52	7.531
240.88	7.188
241.25	7.025
241.61	6.451
241.98	6.441
242.34	6.220
242.71	5.754
243.07	5.747
243.44	5.330
243.80	5.254
244.17	5.061
244.53	5.037
244.90	4.830
245.26	4.872
245.63	5.185
245.99	4.970
246.36	5.052
246.72	5.086
247.09	5.275
247.45	5.338
247.81	5.284
248.18	5.256
248.54	4.867
248.91	4.857
249.27	4.839
249.64	4.792
250.00	5.208
250.36	5.390
250.73	5.496
251.09	5.317
251.46	5.508
251.82	5.607
252.19	5.826
252.55	6.555
252.91	6.626
253.28	6.765
253.64	6.471
254.01	5.955
254.37	5.273
254.73	5.387
255.10	5.191
255.46	5.099
255.83	4.989
256.19	4.887
256.55	4.526
256.92	4.755
257.28	4.642
257.65	4.738
258.01	4.769
258.37	4.607
258.74	4.583
259.10	4.532
259.46	4.612
259.83	4.627
260.19	4.482
260.55	4.638
260.92	4.603
261.28	4.772
261.64	4.779
262.01	4.880
262.37	5.296
262.73	4.980
263.10	5.030
263.46	4.953
263.82	4.975
264.19	4.900
264.55	5.068
264.91	4.944
265.28	4.826
265.64	4.797
266.00	4.700
266.37	4.719
266.73	5.168
267.09	5.339
267.46	5.385
267.82	5.372
268.18	5.417
268.54	5.096
268.91	4.820
269.27	4.722
269.63	4.564
270.00	4.284
270.36	4.040
270.72	3.745
271.08	3.526
271.45	3.366
271.81	3.468
272.17	3.663
272.53	3.919
272.90	4.043
273.26	3.969
273.62	4.152
273.98	4.399
274.35	4.614
274.71	4.905
275.07	5.076
275.43	5.067
275.80	4.974
276.16	4.782
276.52	4.639
276.88	4.636
277.25	4.652
277.61	4.513
277.97	4.678
278.33	4.599
278.69	4.509
279.06	4.394
279.42	4.300
279.78	4.281
280.14	4.639
280.50	4.790
280.87	4.804
281.23	4.851
281.59	4.806
281.95	4.680
282.31	4.643
282.68	4.543
283.04	4.536
283.40	4.708
283.76	4.737
284.12	4.545
284.48	4.383
284.85	4.407
285.21	4.434
285.57	4.386
285.93	4.307
286.29	4.227
286.65	4.232
287.02	4.191
287.38	3.949
287.74	3.852
288.10	3.774
288.46	3.780
288.82	3.864
289.18	3.778
289.54	3.974
289.91	3.918
290.27	3.925
290.63	4.036
290.99	4.244
291.35	4.375
291.71	4.541
292.07	4.626
292.43	4.568
292.79	4.243
293.16	4.190
293.52	3.983
293.88	4.053
294.24	4.147
294.60	4.027
294.96	3.896
295.32	4.027
295.68	3.910
296.04	3.857
296.40	3.897
296.76	3.938
297.12	4.117
297.49	4.161
297.85	4.222
298.21	4.199
298.57	4.325
298.93	4.382
299.29	4.470
299.65	4.573
300.01	4.634
300.37	4.743
300.73	4.947
301.09	4.870
301.45	4.925
301.81	4.996
302.17	5.072
302.53	5.083
302.89	5.146
303.25	5.034
303.61	5.076
303.97	5.029
304.33	4.863
304.69	4.920
305.05	4.801
305.41	4.686
305.77	4.690
306.13	4.723
306.49	4.679
306.85	4.645
307.21	4.661
307.57	4.591
307.93	4.565
308.29	4.685
308.65	4.683
309.01	4.735
309.37	4.951
309.73	4.884
310.09	4.801
310.45	4.777
310.81	4.785
311.17	4.716
311.53	4.763
311.89	4.785
312.25	4.769
312.61	4.728
312.96	4.737
313.32	4.581
313.68	4.591
314.04	4.664
314.40	4.589
314.76	4.650
315.12	4.685
315.48	4.672
315.84	4.804
316.20	4.733
316.56	4.667
316.92	4.708
317.27	4.620
317.63	4.582
317.99	4.552
318.35	4.682
318.71	4.660
319.07	4.682
319.43	4.617
319.79	4.553
320.15	4.599
320.50	4.723
320.86	4.645
321.22	4.694
321.58	4.675
321.94	4.635
322.30	4.503
322.66	4.440
323.01	4.445
323.37	4.517
323.73	4.495
324.09	4.430
324.45	4.307
324.81	4.264
325.17	4.220
325.52	4.160
325.88	4.115
326.24	4.126
326.60	4.095
326.96	4.093
327.31	3.990
327.67	3.930
328.03	4.015
328.39	4.138
328.75	4.195
329.11	4.318
329.46	4.420
329.82	4.512
330.18	4.651
330.54	4.689
330.90	4.685
331.25	4.641
331.61	4.614
331.97	4.591
332.33	4.480
332.68	4.505
333.04	4.380
333.40	4.377
333.76	4.307
334.11	4.161
334.47	4.105
334.83	4.125
335.19	4.172
335.54	4.262
335.90	4.274
336.26	4.324
336.62	4.291
336.97	4.322
337.33	4.280
337.69	4.279
338.05	4.317
338.40	4.378
338.76	4.288
339.12	4.264
339.48	4.164
339.83	4.130
340.19	4.062
340.55	4.108
340.90	4.140
341.26	4.154
341.62	4.209
341.97	4.191
342.33	4.153
342.69	4.253
343.04	4.203
343.40	4.220
343.76	4.263
344.12	4.276
344.47	4.182
344.83	4.176
345.19	4.197
345.54	4.245
345.90	4.345
346.26	4.388
346.61	4.240
346.97	4.353
347.32	4.366
347.68	4.331
348.04	4.353
348.39	4.417
348.75	4.347
349.11	4.363
349.46	4.284
349.82	4.225
350.18	4.194
350.53	4.276
350.89	4.200
351.24	4.130
351.60	4.100
351.96	4.069
352.31	4.061
352.67	4.107
353.02	4.044
353.38	4.009
353.74	4.057
354.09	4.030
354.45	4.117
354.80	4.130
355.16	4.167
355.52	4.127
355.87	4.225
356.23	4.193
356.58	4.190
356.94	4.195
357.29	4.258
357.65	4.230
358.00	4.239
358.36	4.162
358.72	4.134
359.07	4.090
359.43	4.129
359.78	4.026
360.14	4.039
360.49	4.040
360.85	4.000
361.20	3.948
361.56	3.940
361.91	3.893
362.27	3.866
362.62	3.882
362.98	3.934
363.33	3.918
363.69	3.950
364.04	3.946
364.40	3.949
364.75	3.949
365.11	3.989
365.46	3.953
365.82	3.952
366.17	3.920
366.53	3.960
366.88	3.934
367.24	3.851
367.59	3.825
367.95	3.799
368.30	3.809
368.66	3.860
369.01	3.820
369.37	3.845
369.72	3.866
370.08	3.907
370.43	3.885
370.78	3.895
371.14	4.013
371.49	4.023
371.85	4.035
372.20	3.942
372.56	3.931
372.91	3.959
373.26	3.962
373.62	4.015
373.97	4.033
374.33	4.025
374.68	4.006
375.03	3.973
375.39	3.988
375.74	3.993
376.10	4.089
376.45	4.105
376.80	4.060
377.16	4.030
377.51	3.987
377.87	4.012
378.22	4.022
378.57	4.044
378.93	4.082
379.28	4.148
379.63	4.190
379.99	4.189
380.34	4.144
380.70	4.199
381.05	4.221
381.40	4.312
381.76	4.307
382.11	4.318
382.46	4.404
382.82	4.417
383.17	4.407
383.52	4.417
383.88	4.439
384.23	4.455
384.58	4.457
384.94	4.460
385.29	4.388
385.64	4.361
385.99	4.358
386.35	4.292
386.70	4.253
387.05	4.268
387.41	4.257
387.76	4.293
388.11	4.353
388.47	4.338
388.82	4.350
389.17	4.376
389.52	4.410
389.88	4.435
390.23	4.496
390.58	4.535
390.93	4.550
391.29	4.541
391.64	4.508
391.99	4.488
392.34	4.506
392.70	4.568
393.05	4.561
393.40	4.519
393.75	4.516
394.11	4.443
394.46	4.427
394.81	4.360
395.16	4.349
395.52	4.283
395.87	4.255
396.22	4.194
396.57	4.129
396.92	4.056
397.28	4.033
397.63	4.006
397.98	3.973
398.33	3.924
398.68	3.920
399.04	3.881
399.39	3.866
399.74	3.806
400.09	3.799
400.44	3.736
400.80	3.750
401.15	3.750
401.50	3.730
401.85	3.739
402.20	3.773
402.55	3.756
402.90	3.760
403.26	3.786
403.61	3.826
403.96	3.861
404.31	3.911
404.66	3.913
405.01	3.893
405.36	3.881
405.72	3.883
406.07	3.843
406.42	3.842
406.77	3.840
407.12	3.828
407.47	3.801
407.82	3.742
408.17	3.714
408.53	3.707
408.88	3.710
409.23	3.699
409.58	3.654
409.93	3.634
410.28	3.615
410.63	3.560
410.98	3.536
411.33	3.535
411.68	3.527
412.03	3.495
412.38	3.499
412.73	3.521
413.09	3.547
413.44	3.577
413.79	3.629
414.14	3.675
414.49	3.721
414.84	3.763
415.19	3.805
415.54	3.868
415.89	3.927
416.24	3.972
416.59	4.008
416.94	4.019
417.29	4.070
417.64	4.081
417.99	4.083
418.34	4.128
418.69	4.147
419.04	4.158
419.39	4.159
419.74	4.176
420.09	4.194
420.44	4.206
420.79	4.225
421.14	4.213
421.49	4.226
421.84	4.223
422.19	4.198
422.54	4.197
422.89	4.193
423.24	4.202
423.59	4.171
423.94	4.144
424.29	4.104
424.64	4.078
424.99	4.058
425.34	4.019
425.68	4.021
426.03	3.999
426.38	3.958
426.73	3.933
427.08	3.884
427.43	3.872
427.78	3.861
428.13	3.881
428.48	3.889
428.83	3.895
429.18	3.901
429.53	3.895
429.87	3.910
430.22	3.910
430.57	3.920
430.92	3.932
431.27	3.952
431.62	3.965
431.97	3.941
432.32	3.935
432.67	3.920
433.01	3.917
433.36	3.901
433.71	3.897
434.06	3.882
434.41	3.879
434.76	3.880
435.11	3.877
435.45	3.865
435.80	3.906
436.15	3.918
436.50	3.939
436.85	3.973
437.20	3.999
437.54	4.019
437.89	4.057
438.24	4.058
438.59	4.041
438.94	4.039
439.29	4.039
439.63	4.001
439.98	3.990
440.33	3.997
440.68	3.981
441.03	3.958
441.37	3.936
441.72	3.960
442.07	3.970
442.42	3.999
442.76	4.012
443.11	4.023
443.46	4.062
443.81	4.077
444.16	4.077
444.50	4.080
444.85	4.085
445.20	4.092
445.55	4.042
445.89	4.023
446.24	3.979
446.59	3.953
446.94	3.902
447.28	3.836
447.63	3.781
447.98	3.739
448.32	3.693
448.67	3.644
449.02	3.603
449.37	3.587
449.71	3.563
450.06	3.560
450.41	3.543
450.75	3.573
451.10	3.594
451.45	3.590
451.79	3.578
452.14	3.573
452.49	3.574
452.84	3.596
453.18	3.588
453.53	3.575
453.88	3.603
454.22	3.605
454.57	3.614
454.92	3.648
455.26	3.687
455.61	3.743
455.95	3.778
456.30	3.840
456.65	3.850
456.99	3.886
457.34	3.918
457.69	3.939
458.03	3.969
458.38	3.974
458.73	3.960
459.07	3.961
459.42	3.940
459.76	3.925
460.11	3.870
460.46	3.843
460.80	3.812
461.15	3.778
461.49	3.739
461.84	3.712
462.19	3.669
462.53	3.667
462.88	3.636
463.22	3.619
463.57	3.620
463.91	3.633
464.26	3.649
464.61	3.676
464.95	3.702
465.30	3.707
465.64	3.710
465.99	3.740
466.33	3.734
466.68	3.736
467.02	3.726
467.37	3.705
467.71	3.694
468.06	3.688
468.41	3.672
468.75	3.661
469.10	3.648
469.44	3.633
469.79	3.614
470.13	3.566
470.48	3.555
470.82	3.557
471.17	3.579
471.51	3.583
471.86	3.559
472.20	3.531
472.55	3.527
472.89	3.523
473.23	3.508
473.58	3.487
473.92	3.523
474.27	3.529
474.61	3.530
474.96	3.507
475.30	3.507
475.65	3.534
475.99	3.547
476.34	3.517
476.68	3.527
477.02	3.536
477.37	3.563
477.71	3.578
478.06	3.630
478.40	3.694
478.75	3.801
479.09	3.933
479.43	4.070
479.78	4.215
480.12	4.372
480.47	4.512
480.81	4.661
481.15	4.803
481.50	4.936
481.84	5.069
482.19	5.227
482.53	5.346
482.87	5.432
483.22	5.457
483.56	5.426
483.90	5.357
484.25	5.259
484.59	5.134
484.94	5.035
485.28	4.946
485.62	4.835
485.97	4.692
486.31	4.579
486.65	4.487
487.00	4.437
487.34	4.433
487.68	4.454
488.03	4.496
488.37	4.543
488.71	4.561
489.06	4.559
489.40	4.545
489.74	4.530
490.09	4.502
490.43	4.476
490.77	4.459
491.11	4.434
491.46	4.399
491.80	4.367
492.14	4.333
492.49	4.288
492.83	4.237
493.17	4.199
493.51	4.177
493.86	4.168
494.20	4.163
494.54	4.162
494.88	4.189
495.23	4.230
495.57	4.256
495.91	4.303
496.25	4.351
496.60	4.395
496.94	4.447
497.28	4.488
497.62	4.522
497.97	4.535
498.31	4.568
498.65	4.616
498.99	4.677
499.33	4.751
499.68	4.811
500.02	4.885
500.36	4.970
500.70	5.044
501.04	5.135
501.39	5.245
501.73	5.382
502.07	5.509
502.41	5.629
502.75	5.730
503.09	5.858
503.44	6.028
503.78	6.196
504.12	6.381
504.46	6.561
504.80	6.761
505.14	6.967
505.49	7.171
505.83	7.364
506.17	7.561
506.51	7.794
506.85	8.006
507.19	8.203
507.53	8.406
507.87	8.625
508.22	8.856
508.56	9.072
508.90	9.284
509.24	9.512
509.58	9.768
509.92	10.023
510.26	10.272
510.60	10.548
510.94	10.830
511.28	11.114
511.63	11.419
511.97	11.737
512.31	12.069
512.65	12.426
512.99	12.797
513.33	13.199
513.67	13.622
514.01	14.052
514.35	14.494
514.69	14.937
515.03	15.367
515.37	15.789
515.71	16.182
516.05	16.574
516.39	16.933
516.73	17.261
517.07	17.590
517.41	17.897
517.75	18.219
518.09	18.525
518.43	18.839
518.77	19.180
519.11	19.491
519.45	19.861
519.79	20.242
520.13	20.669
520.47	21.170
520.81	21.654
521.15	22.199
521.49	22.707
521.83	23.220
522.17	23.692
522.51	24.185
522.85	24.720
523.19	25.308
523.53	25.943
523.87	26.603
524.21	27.241
524.55	27.847
524.89	28.400
525.23	28.897
525.57	29.368
525.91	29.819
526.25	30.210
526.58	30.576
526.92	30.889
527.26	31.187
527.60	31.437
527.94	31.651
528.28	31.892
528.62	32.105
528.96	32.347
529.30	32.559
529.64	32.778
529.97	32.998
530.31	33.238
530.65	33.498
530.99	33.748
531.33	34.023
531.67	34.324
532.01	34.570
532.35	34.796
532.68	34.990
533.02	35.186
533.36	35.385
533.70	35.565
534.04	35.730
534.38	35.902
534.71	36.079
535.05	36.285
535.39	36.437
535.73	36.626
536.07	36.877
536.41	37.175
536.74	37.495
537.08	37.818
537.42	38.186
537.76	38.531
538.10	38.871
538.43	39.200
538.77	39.487
539.11	39.755
539.45	39.993
539.79	40.187
540.12	40.381
540.46	40.491
540.80	40.573
541.14	40.657
541.47	40.714
541.81	40.790
542.15	40.848
542.49	40.896
542.82	40.980
543.16	41.052
543.50	41.119
543.84	41.145
544.17	41.265
544.51	41.350
544.85	41.439
545.18	41.561
545.52	41.630
545.86	41.719
546.20	41.808
546.53	41.883
546.87	41.961
547.21	42.024
547.54	42.121
547.88	42.240
548.22	42.404
548.55	42.502
548.89	42.599
549.23	42.696
549.56	42.807
549.90	42.867
550.24	42.974
550.57	43.028
550.91	43.149
551.25	43.252
551.58	43.314
551.92	43.354
552.26	43.446
552.59	43.507
552.93	43.604
553.27	43.674
553.60	43.758
553.94	43.819
554.27	43.914
554.61	43.949
554.95	44.005
555.28	44.064
555.62	44.180
555.95	44.244
556.29	44.339
556.63	44.388
556.96	44.416
557.30	44.505
557.63	44.571
557.97	44.591
558.31	44.682
558.64	44.809
558.98	44.867
559.31	44.873
559.65	44.959
559.98	45.003
560.32	45.067
560.65	45.140
560.99	45.185
561.33	45.219
561.66	45.323
562.00	45.405
562.33	45.394
562.67	45.477
563.00	45.578
563.34	45.625
563.67	45.732
564.01	45.789
564.34	45.825
564.68	45.887
565.01	45.947
565.35	45.986
565.68	46.057
566.02	46.090
566.35	46.114
566.69	46.115
567.02	46.140
567.36	46.147
567.69	46.174
568.03	46.232
568.36	46.260
568.69	46.337
569.03	46.348
569.36	46.360
569.70	46.437
570.03	46.449
570.37	46.526
570.70	46.548
571.04	46.608
571.37	46.663
571.70	46.689
572.04	46.719
572.37	46.696
572.71	46.761
573.04	46.762
573.37	46.744
573.71	46.783
574.04	46.752
574.38	46.788
574.71	46.757
575.04	46.771
575.38	46.804
575.71	46.826
576.05	46.837
576.38	46.858
576.71	46.885
577.05	46.959
577.38	47.022
577.71	47.065
578.05	47.086
578.38	47.053
578.71	46.986
579.05	46.990
579.38	46.997
579.71	47.017
580.05	47.056
580.38	47.060
580.71	47.017
581.05	47.015
581.38	46.988
581.71	47.012
582.05	47.055
582.38	47.173
582.71	47.189
583.04	47.213
583.38	47.183
583.71	47.095
584.04	47.153
584.38	47.107
584.71	47.123
585.04	47.161
585.37	47.168
585.71	47.191
586.04	47.150
586.37	47.147
586.70	47.174
587.04	47.214
587.37	47.282
587.70	47.236
588.03	47.322
588.37	47.246
588.70	47.208
589.03	47.189
589.36	47.188
589.69	47.193
590.03	47.183
590.36	47.114
590.69	47.081
591.02	47.012
591.35	46.996
591.69	47.014
592.02	47.035
592.35	47.027
592.68	47.025
593.01	47.079
593.35	47.074
593.68	47.068
594.01	47.100
594.34	47.085
594.67	47.130
595.00	47.122
595.34	47.044
595.67	47.011
596.00	47.010
596.33	46.971
596.66	46.876
596.99	46.841
597.32	46.824
597.65	46.786
597.99	46.809
598.32	46.764
598.65	46.730
598.98	46.750
599.31	46.706
599.64	46.699
599.97	46.728
600.30	46.734
600.63	46.671
600.96	46.602
601.30	46.552
601.63	46.515
601.96	46.507
602.29	46.496
602.62	46.469
602.95	46.454
603.28	46.367
603.61	46.326
603.94	46.262
604.27	46.216
604.60	46.227
604.93	46.200
605.26	46.153
605.59	46.086
605.92	46.074
606.25	45.979
606.58	45.947
606.91	45.974
607.24	45.889
607.57	45.870
607.90	45.866
608.23	45.782
608.56	45.746
608.89	45.702
609.22	45.690
609.55	45.635
609.88	45.608
610.21	45.565
610.54	45.537
610.87	45.522
611.20	45.437
611.53	45.373
611.86	45.409
612.19	45.398
612.52	45.348
612.85	45.248
613.18	45.213
613.51	45.266
613.84	45.263
614.17	45.230
614.49	45.189
614.82	45.210
615.15	45.206
615.48	45.089
615.81	45.000
616.14	44.981
616.47	44.988
616.80	44.867
617.13	44.723
617.46	44.682
617.78	44.615
618.11	44.581
618.44	44.530
618.77	44.494
619.10	44.478
619.43	44.488
619.76	44.441
620.09	44.365
620.41	44.335
620.74	44.347
621.07	44.253
621.40	44.217
621.73	44.084
622.06	44.025
622.38	44.000
622.71	43.969
623.04	43.916
623.37	43.845
623.70	43.829
624.02	43.839
624.35	43.751
624.68	43.736
625.01	43.658
625.34	43.634
625.66	43.599
625.99	43.497
626.32	43.413
626.65	43.300
626.98	43.250
627.30	43.143
627.63	43.031
627.96	42.990
628.29	42.943
628.61	42.928
628.94	42.864
629.27	42.754
629.60	42.752
629.92	42.721
630.25	42.668
630.58	42.630
630.91	42.631
631.23	42.551
631.56	42.500
631.89	42.404
632.21	42.297
632.54	42.267
632.87	42.191
633.19	42.089
633.52	42.047
633.85	42.032
634.18	41.979
634.50	41.880
634.83	41.874
635.16	41.843
635.48	41.803
635.81	41.757
636.14	41.697
636.46	41.688
636.79	41.604
637.11	41.520
637.44	41.506
637.77	41.397
638.09	41.354
638.42	41.221
638.75	41.098
639.07	41.018
639.40	40.896
639.73	40.835
640.05	40.783
640.38	40.778
640.70	40.688
641.03	40.589
641.36	40.537
641.68	40.474
642.01	40.475
642.33	40.342
642.66	40.244
642.98	40.224
643.31	40.122
643.64	40.073
643.96	39.974
644.29	39.926
644.61	39.891
644.94	39.825
645.26	39.732
645.59	39.660
645.91	39.726
646.24	39.744
646.56	39.664
646.89	39.641
647.22	39.540
647.54	39.480
647.87	39.387
648.19	39.318
648.52	39.318
648.84	39.289
649.17	39.262
649.49	39.156
649.82	39.064
650.14	39.055
650.47	39.059
