OOIBase32 Version 2.0.0.6 Data File
++++++++++++++++++++++++++++++++++++
Date: 01-22-2012, 22:04:52
User: Valued Ocean Optics Customer
Spectrometer Serial Number: USB2E2917
Spectrometer Channel: Master
Integration Time (msec): 4
Spectra Averaged: 10
Boxcar Smoothing: 5
Correct for Electrical Dark: Enabled
Time Normalized: Disabled
Dual-beam Reference: Disabled
Reference Channel: Master
Temperature: Not acquired
Spectrometer Type: S2000
ADC Type: USB2000
Number of Pixels in File: 2048
Graph Title: 
>>>>>Begin Spectral Data<<<<<
180.30	0.000
180.67	0.000
181.03	59.806
181.40	18.166
181.77	-359.416
182.14	49.657
182.51	71.707
182.88	23.886
183.25	-13.560
183.62	35.524
183.99	174.337
184.36	-296.678
184.73	-2.956
185.10	-111.669
185.46	-149.723
185.83	-2824.757
186.20	89.027
186.57	-5471.382
186.94	83.080
187.31	-97.613
187.68	41.464
188.05	30.820
188.42	-6.969
188.78	7.568
189.15	-75.981
189.52	-97.762
189.89	-62.723
190.26	-25.297
190.63	19.697
191.00	1.810
191.37	-4.393
191.73	-61.558
192.10	-66.438
192.47	-33.623
192.84	-14.838
193.21	21.397
193.58	37.601
193.94	30.267
194.31	29.659
194.68	31.190
195.05	37.998
195.42	15.489
195.79	23.444
196.15	44.796
196.52	37.338
196.89	46.724
197.26	49.746
197.63	46.739
198.00	77.189
198.36	112.764
198.73	138.714
199.10	115.515
199.47	112.810
199.84	84.829
200.20	61.241
200.57	41.097
200.94	6.198
201.31	11.357
201.68	-8.607
202.04	-28.225
202.41	-35.461
202.78	-26.800
203.15	-31.658
203.51	-20.576
203.88	-18.249
204.25	-8.382
204.62	-6.047
204.98	10.148
205.35	14.276
205.72	32.877
206.09	49.002
206.46	21.587
206.82	19.841
207.19	15.261
207.56	-1.290
207.92	8.203
208.29	7.358
208.66	21.913
209.03	14.128
209.39	-1.530
209.76	-10.054
210.13	-35.994
210.50	-8.039
210.86	-23.919
211.23	-8.486
211.60	-0.788
211.96	-13.095
212.33	-30.533
212.70	-27.051
213.07	-0.998
213.43	5.123
213.80	-9.671
214.17	11.316
214.53	7.529
214.90	-0.172
215.27	-7.215
215.63	-1.197
216.00	-8.393
216.37	-22.882
216.74	-13.560
217.10	-34.152
217.47	-29.765
217.84	-9.681
218.20	-21.731
218.57	-49.072
218.94	-33.224
219.30	-23.467
219.67	-25.921
220.04	-11.758
220.40	-7.515
220.77	-25.123
221.13	-16.965
221.50	-28.248
221.87	-46.744
222.23	-33.807
222.60	-24.636
222.97	-15.032
223.33	-11.890
223.70	-6.174
224.07	-2.917
224.43	1.781
224.80	-0.446
225.16	1.115
225.53	2.479
225.90	5.916
226.26	6.219
226.63	7.660
226.99	6.324
227.36	6.246
227.73	6.227
228.09	3.855
228.46	4.616
228.82	7.016
229.19	5.404
229.56	4.896
229.92	4.262
230.29	3.587
230.65	5.145
231.02	8.035
231.38	4.159
231.75	4.249
232.12	4.412
232.48	4.517
232.85	3.967
233.21	4.939
233.58	5.688
233.94	2.765
234.31	0.808
234.68	-0.775
235.04	-2.375
235.41	0.680
235.77	0.965
236.14	2.890
236.50	-1.692
236.87	-2.483
237.23	-1.288
237.60	-0.014
237.96	1.901
238.33	3.129
238.69	2.351
239.06	3.005
239.42	2.734
239.79	2.558
240.15	2.607
240.52	3.880
240.88	3.924
241.25	3.449
241.61	2.693
241.98	2.457
242.34	2.051
242.71	1.989
243.07	1.911
243.44	2.105
243.80	1.782
244.17	2.190
244.53	2.545
244.90	2.784
245.26	2.860
245.63	3.268
245.99	3.620
246.36	3.706
246.72	3.819
247.09	3.899
247.45	4.451
247.81	4.964
248.18	4.934
248.54	4.945
248.91	5.562
249.27	5.476
249.64	5.130
250.00	4.985
250.36	5.102
250.73	5.489
251.09	4.979
251.46	4.242
251.82	4.319
252.19	3.428
252.55	3.318
252.91	2.080
253.28	2.380
253.64	2.848
254.01	3.056
254.37	4.082
254.73	3.660
255.10	3.914
255.46	4.004
255.83	3.615
256.19	4.127
256.55	4.163
256.92	4.205
257.28	4.341
257.65	4.046
258.01	3.861
258.37	3.255
258.74	3.380
259.10	3.213
259.46	3.251
259.83	3.106
260.19	3.086
260.55	3.155
260.92	3.410
261.28	3.066
261.64	3.582
262.01	3.918
262.37	4.225
262.73	4.185
263.10	5.026
263.46	5.112
263.82	5.784
264.19	5.571
264.55	5.502
264.91	5.370
265.28	5.566
265.64	5.357
266.00	5.348
266.37	5.274
266.73	5.521
267.09	4.937
267.46	4.562
267.82	4.078
268.18	3.977
268.54	4.137
268.91	4.164
269.27	4.153
269.63	4.079
270.00	3.716
270.36	3.760
270.72	3.632
271.08	4.112
271.45	4.255
271.81	4.453
272.17	4.431
272.53	4.147
272.90	4.062
273.26	4.228
273.62	4.282
273.98	4.459
274.35	4.689
274.71	4.791
275.07	4.813
275.43	5.035
275.80	5.133
276.16	5.332
276.52	5.496
276.88	5.457
277.25	5.085
277.61	5.172
277.97	5.143
278.33	5.027
278.69	5.027
279.06	4.498
279.42	4.459
279.78	4.495
280.14	4.430
280.50	4.478
280.87	4.406
281.23	4.775
281.59	4.591
281.95	4.733
282.31	4.805
282.68	4.548
283.04	4.755
283.40	4.789
283.76	4.659
284.12	4.718
284.48	4.589
284.85	4.686
285.21	4.384
285.57	4.265
285.93	4.113
286.29	3.687
286.65	3.859
287.02	3.820
287.38	3.667
287.74	3.564
288.10	3.249
288.46	3.403
288.82	3.244
289.18	3.542
289.54	3.615
289.91	3.609
290.27	3.793
290.63	3.673
290.99	3.783
291.35	3.653
291.71	3.856
292.07	4.262
292.43	4.032
292.79	3.795
293.16	3.481
293.52	3.652
293.88	3.614
294.24	3.663
294.60	3.774
294.96	3.655
295.32	3.669
295.68	3.650
296.04	3.549
296.40	3.629
296.76	3.824
297.12	3.996
297.49	3.907
297.85	3.891
298.21	3.930
298.57	3.933
298.93	3.801
299.29	3.851
299.65	3.843
300.01	3.809
300.37	3.680
300.73	3.638
301.09	3.731
301.45	3.973
301.81	4.077
302.17	4.127
302.53	4.115
302.89	4.246
303.25	4.405
303.61	4.428
303.97	4.460
304.33	4.499
304.69	4.630
305.05	4.528
305.41	4.306
305.77	4.323
306.13	4.201
306.49	4.064
306.85	3.977
307.21	3.973
307.57	4.004
307.93	3.892
308.29	3.806
308.65	3.803
309.01	3.591
309.37	3.688
309.73	3.615
310.09	3.666
310.45	3.583
310.81	3.595
311.17	3.342
311.53	3.322
311.89	3.435
312.25	3.466
312.61	3.414
312.96	3.699
313.32	3.546
313.68	3.376
314.04	3.318
314.40	3.560
314.76	3.581
315.12	3.704
315.48	3.652
315.84	3.539
316.20	3.884
316.56	3.896
316.92	3.734
317.27	3.930
317.63	4.191
317.99	4.376
318.35	4.379
318.71	4.382
319.07	4.429
319.43	4.479
319.79	4.435
320.15	4.318
320.50	4.361
320.86	4.464
321.22	4.437
321.58	4.555
321.94	4.577
322.30	4.549
322.66	4.663
323.01	4.759
323.37	4.953
323.73	5.191
324.09	5.103
324.45	5.054
324.81	5.138
325.17	5.251
325.52	5.224
325.88	5.296
326.24	5.296
326.60	5.429
326.96	5.488
327.31	5.523
327.67	5.506
328.03	5.628
328.39	5.866
328.75	6.016
329.11	6.197
329.46	6.301
329.82	6.377
330.18	6.558
330.54	6.633
330.90	6.676
331.25	6.658
331.61	6.749
331.97	6.828
332.33	6.996
332.68	7.059
333.04	6.969
333.40	7.010
333.76	6.985
334.11	6.963
334.47	7.065
334.83	7.157
335.19	7.176
335.54	7.274
335.90	7.462
336.26	7.478
336.62	7.385
336.97	7.318
337.33	7.289
337.69	7.235
338.05	7.371
338.40	7.368
338.76	7.289
339.12	7.298
339.48	7.411
339.83	7.260
340.19	7.135
340.55	7.111
340.90	7.311
341.26	7.396
341.62	7.600
341.97	7.493
342.33	7.355
342.69	7.458
343.04	7.463
343.40	7.286
343.76	7.298
344.12	7.412
344.47	7.444
344.83	7.334
345.19	7.299
345.54	7.185
345.90	7.197
346.26	7.296
346.61	7.317
346.97	7.249
347.32	7.207
347.68	7.280
348.04	7.180
348.39	7.164
348.75	7.105
349.11	7.062
349.46	7.070
349.82	7.076
350.18	7.117
350.53	6.992
350.89	6.993
351.24	7.037
351.60	6.917
351.96	6.857
352.31	6.933
352.67	7.061
353.02	7.134
353.38	7.153
353.74	7.171
354.09	7.081
354.45	7.130
354.80	7.217
355.16	7.139
355.52	7.151
355.87	7.158
356.23	7.177
356.58	7.089
356.94	7.130
357.29	7.137
357.65	7.167
358.00	7.159
358.36	7.214
358.72	7.200
359.07	7.304
359.43	7.360
359.78	7.389
360.14	7.378
360.49	7.454
360.85	7.390
361.20	7.316
361.56	7.249
361.91	7.254
362.27	7.244
362.62	7.177
362.98	7.241
363.33	7.316
363.69	7.352
364.04	7.373
364.40	7.335
364.75	7.297
365.11	7.343
365.46	7.357
365.82	7.396
366.17	7.434
366.53	7.499
366.88	7.437
367.24	7.397
367.59	7.405
367.95	7.474
368.30	7.504
368.66	7.570
369.01	7.555
369.37	7.631
369.72	7.665
370.08	7.625
370.43	7.725
370.78	7.755
371.14	7.793
371.49	7.832
371.85	7.836
372.20	7.841
372.56	7.900
372.91	7.939
373.26	7.983
373.62	7.923
373.97	7.995
374.33	7.885
374.68	7.890
375.03	7.881
375.39	7.868
375.74	7.805
376.10	7.881
376.45	7.937
376.80	8.020
377.16	8.016
377.51	8.082
377.87	8.047
378.22	8.179
378.57	8.250
378.93	8.229
379.28	8.347
379.63	8.416
379.99	8.459
380.34	8.515
380.70	8.574
381.05	8.663
381.40	8.735
381.76	8.805
382.11	8.919
382.46	8.955
382.82	9.106
383.17	9.108
383.52	9.118
383.88	9.107
384.23	9.026
384.58	9.025
384.94	9.036
385.29	9.057
385.64	9.094
385.99	9.041
386.35	9.086
386.70	9.026
387.05	9.023
387.41	9.018
387.76	9.047
388.11	9.155
388.47	9.161
388.82	9.105
389.17	9.103
389.52	9.131
389.88	9.130
390.23	9.054
390.58	9.090
390.93	9.123
391.29	9.169
391.64	9.200
391.99	9.174
392.34	9.194
392.70	9.194
393.05	9.206
393.40	9.160
393.75	9.112
394.11	9.123
394.46	9.078
394.81	9.021
395.16	8.922
395.52	8.799
395.87	8.710
396.22	8.657
396.57	8.616
396.92	8.535
397.28	8.467
397.63	8.397
397.98	8.339
398.33	8.268
398.68	8.165
399.04	8.207
399.39	8.211
399.74	8.214
400.09	8.157
400.44	8.165
400.80	8.129
401.15	8.156
401.50	8.221
401.85	8.224
402.20	8.265
402.55	8.304
402.90	8.313
403.26	8.270
403.61	8.255
403.96	8.253
404.31	8.234
404.66	8.259
405.01	8.237
405.36	8.206
405.72	8.163
406.07	8.116
406.42	8.088
406.77	7.999
407.12	8.023
407.47	8.010
407.82	7.951
408.17	7.944
408.53	7.926
408.88	7.921
409.23	7.859
409.58	7.855
409.93	7.815
410.28	7.845
410.63	7.858
410.98	7.835
411.33	7.806
411.68	7.841
412.03	7.784
412.38	7.741
412.73	7.710
413.09	7.729
413.44	7.770
413.79	7.826
414.14	7.815
414.49	7.842
414.84	7.879
415.19	7.917
415.54	7.919
415.89	7.970
416.24	8.059
416.59	8.121
416.94	8.164
417.29	8.176
417.64	8.191
417.99	8.216
418.34	8.229
418.69	8.217
419.04	8.193
419.39	8.204
419.74	8.212
420.09	8.177
420.44	8.146
420.79	8.114
421.14	8.099
421.49	8.067
421.84	8.021
422.19	7.991
422.54	7.985
422.89	7.992
423.24	7.966
423.59	7.918
423.94	7.872
424.29	7.834
424.64	7.776
424.99	7.738
425.34	7.684
425.68	7.663
426.03	7.593
426.38	7.539
426.73	7.472
427.08	7.442
427.43	7.466
427.78	7.456
428.13	7.428
428.48	7.464
428.83	7.447
429.18	7.489
429.53	7.451
429.87	7.487
430.22	7.477
430.57	7.481
430.92	7.475
431.27	7.449
431.62	7.452
431.97	7.461
432.32	7.462
432.67	7.460
433.01	7.412
433.36	7.435
433.71	7.410
434.06	7.401
434.41	7.377
434.76	7.375
435.11	7.385
435.45	7.396
435.80	7.377
436.15	7.351
436.50	7.364
436.85	7.391
437.20	7.392
437.54	7.399
437.89	7.398
438.24	7.411
438.59	7.411
438.94	7.362
439.29	7.329
439.63	7.307
439.98	7.270
440.33	7.221
440.68	7.187
441.03	7.159
441.37	7.123
441.72	7.108
442.07	7.105
442.42	7.082
442.76	7.110
443.11	7.110
443.46	7.118
443.81	7.133
444.16	7.126
444.50	7.134
444.85	7.108
445.20	7.098
445.55	7.057
445.89	7.006
446.24	6.965
446.59	6.886
446.94	6.800
447.28	6.720
447.63	6.636
447.98	6.585
448.32	6.469
448.67	6.417
449.02	6.340
449.37	6.322
449.71	6.287
450.06	6.244
450.41	6.233
450.75	6.254
451.10	6.237
451.45	6.227
451.79	6.189
452.14	6.189
452.49	6.178
452.84	6.170
453.18	6.134
453.53	6.125
453.88	6.123
454.22	6.172
454.57	6.187
454.92	6.264
455.26	6.326
455.61	6.420
455.95	6.496
456.30	6.554
456.65	6.628
456.99	6.704
457.34	6.785
457.69	6.856
458.03	6.882
458.38	6.903
458.73	6.909
459.07	6.923
459.42	6.895
459.76	6.873
460.11	6.852
460.46	6.823
460.80	6.798
461.15	6.751
461.49	6.723
461.84	6.705
462.19	6.709
462.53	6.732
462.88	6.734
463.22	6.800
463.57	6.852
463.91	6.908
464.26	6.968
464.61	7.001
464.95	7.048
465.30	7.086
465.64	7.135
465.99	7.195
466.33	7.227
466.68	7.254
467.02	7.273
467.37	7.310
467.71	7.322
468.06	7.346
468.41	7.346
468.75	7.354
469.10	7.347
469.44	7.315
469.79	7.297
470.13	7.276
470.48	7.275
470.82	7.264
471.17	7.228
471.51	7.220
471.86	7.182
472.20	7.179
472.55	7.153
472.89	7.131
473.23	7.125
473.58	7.075
473.92	7.069
474.27	7.049
474.61	7.016
474.96	6.987
475.30	6.946
475.65	6.917
475.99	6.884
476.34	6.883
476.68	6.880
477.02	6.874
477.37	6.894
477.71	6.911
478.06	6.974
478.40	7.101
478.75	7.288
479.09	7.485
479.43	7.680
479.78	7.864
480.12	8.024
480.47	8.174
480.81	8.318
481.15	8.449
481.50	8.553
481.84	8.664
482.19	8.756
482.53	8.809
482.87	8.838
483.22	8.855
483.56	8.863
483.90	8.858
484.25	8.838
484.59	8.806
484.94	8.763
485.28	8.723
485.62	8.660
485.97	8.592
486.31	8.554
486.65	8.537
487.00	8.522
487.34	8.509
487.68	8.502
488.03	8.517
488.37	8.523
488.71	8.547
489.06	8.577
489.40	8.590
489.74	8.600
490.09	8.622
490.43	8.625
490.77	8.627
491.11	8.613
491.46	8.607
491.80	8.591
492.14	8.597
492.49	8.596
492.83	8.594
493.17	8.617
493.51	8.652
493.86	8.663
494.20	8.732
494.54	8.813
494.88	8.916
495.23	9.040
495.57	9.154
495.91	9.266
496.25	9.375
496.60	9.499
496.94	9.607
497.28	9.724
497.62	9.839
497.97	9.924
498.31	10.043
498.65	10.174
498.99	10.297
499.33	10.453
499.68	10.608
500.02	10.741
500.36	10.877
500.70	11.028
501.04	11.185
501.39	11.336
501.73	11.529
502.07	11.690
502.41	11.872
502.75	12.038
503.09	12.187
503.44	12.347
503.78	12.540
504.12	12.714
504.46	12.896
504.80	13.093
505.14	13.299
505.49	13.474
505.83	13.633
506.17	13.801
506.51	13.971
506.85	14.153
507.19	14.296
507.53	14.439
507.87	14.620
508.22	14.761
508.56	14.890
508.90	15.021
509.24	15.122
509.58	15.240
509.92	15.326
510.26	15.431
510.60	15.532
510.94	15.651
511.28	15.764
511.63	15.848
511.97	15.964
512.31	16.073
512.65	16.207
512.99	16.352
513.33	16.514
513.67	16.685
514.01	16.862
514.35	17.033
514.69	17.178
515.03	17.348
515.37	17.496
515.71	17.619
516.05	17.732
516.39	17.821
516.73	17.917
517.07	17.997
517.41	18.035
517.75	18.047
518.09	18.061
518.43	18.082
518.77	18.066
519.11	18.050
519.45	18.062
519.79	18.067
520.13	18.071
520.47	18.102
520.81	18.119
521.15	18.183
521.49	18.294
521.83	18.368
522.17	18.483
522.51	18.635
522.85	18.841
523.19	19.070
523.53	19.353
523.87	19.649
524.21	19.943
524.55	20.215
524.89	20.467
525.23	20.677
525.57	20.871
525.91	21.050
526.25	21.190
526.58	21.293
526.92	21.370
527.26	21.412
527.60	21.430
527.94	21.418
528.28	21.385
528.62	21.337
528.96	21.275
529.30	21.217
529.64	21.132
529.97	21.051
530.31	20.985
530.65	20.931
530.99	20.892
531.33	20.848
531.67	20.798
532.01	20.787
532.35	20.741
532.68	20.719
533.02	20.672
533.36	20.609
533.70	20.573
534.04	20.501
534.38	20.426
534.71	20.348
535.05	20.274
535.39	20.241
535.73	20.211
536.07	20.240
536.41	20.279
536.74	20.373
537.08	20.493
537.42	20.583
537.76	20.737
538.10	20.891
538.43	21.003
538.77	21.140
539.11	21.232
539.45	21.324
539.79	21.384
540.12	21.423
540.46	21.421
540.80	21.405
541.14	21.372
541.47	21.303
541.81	21.203
542.15	21.102
542.49	20.976
542.82	20.829
543.16	20.666
543.50	20.537
543.84	20.374
544.17	20.264
544.51	20.174
544.85	20.088
545.18	19.999
545.52	19.916
545.86	19.851
546.20	19.749
546.53	19.688
546.87	19.614
547.21	19.491
547.54	19.416
547.88	19.334
548.22	19.243
548.55	19.177
548.89	19.099
549.23	19.071
549.56	19.036
549.90	19.034
550.24	19.011
550.57	18.985
550.91	19.003
551.25	18.983
551.58	18.948
551.92	18.947
552.26	18.910
552.59	18.920
552.93	18.852
553.27	18.773
553.60	18.722
553.94	18.687
554.27	18.630
554.61	18.600
554.95	18.608
555.28	18.599
555.62	18.579
555.95	18.601
556.29	18.556
556.63	18.565
556.96	18.556
557.30	18.559
557.63	18.546
557.97	18.603
558.31	18.573
558.64	18.557
558.98	18.544
559.31	18.539
559.65	18.511
559.98	18.518
560.32	18.503
560.65	18.589
560.99	18.610
561.33	18.673
561.66	18.674
562.00	18.741
562.33	18.758
562.67	18.802
563.00	18.847
563.34	18.886
563.67	18.942
564.01	18.982
564.34	18.988
564.68	19.029
565.01	19.045
565.35	19.073
565.68	19.050
566.02	19.069
566.35	19.069
566.69	19.076
567.02	19.088
567.36	19.056
567.69	19.046
568.03	19.029
568.36	19.013
568.69	19.004
569.03	18.988
569.36	19.023
569.70	19.015
570.03	19.027
570.37	18.982
570.70	18.968
571.04	18.965
571.37	18.975
571.70	18.955
572.04	18.934
572.37	18.914
572.71	18.894
573.04	18.875
573.37	18.830
573.71	18.784
574.04	18.765
574.38	18.711
574.71	18.669
575.04	18.586
575.38	18.545
575.71	18.474
576.05	18.367
576.38	18.290
576.71	18.154
577.05	18.065
577.38	17.997
577.71	17.921
578.05	17.830
578.38	17.746
578.71	17.693
579.05	17.621
579.38	17.551
579.71	17.502
580.05	17.422
580.38	17.406
580.71	17.360
581.05	17.275
581.38	17.209
581.71	17.175
582.05	17.127
582.38	17.079
582.71	17.058
583.04	17.019
583.38	17.014
583.71	17.038
584.04	17.006
584.38	17.025
584.71	17.060
585.04	17.073
585.37	17.106
585.71	17.168
586.04	17.221
586.37	17.233
586.70	17.286
587.04	17.282
587.37	17.278
587.70	17.300
588.03	17.295
588.37	17.269
588.70	17.227
589.03	17.157
589.36	17.083
589.69	17.008
590.03	16.949
590.36	16.899
590.69	16.823
591.02	16.763
591.35	16.696
591.69	16.639
592.02	16.591
592.35	16.592
592.68	16.573
593.01	16.553
593.35	16.515
593.68	16.493
594.01	16.430
594.34	16.427
594.67	16.369
595.00	16.330
595.34	16.292
595.67	16.230
596.00	16.134
596.33	16.069
596.66	15.945
596.99	15.829
597.32	15.690
597.65	15.618
597.99	15.454
598.32	15.337
598.65	15.245
598.98	15.132
599.31	15.004
599.64	14.940
599.97	14.852
600.30	14.832
600.63	14.836
600.96	14.850
601.30	14.824
601.63	14.847
601.96	14.857
602.29	14.814
602.62	14.788
602.95	14.785
603.28	14.771
603.61	14.748
603.94	14.682
604.27	14.615
604.60	14.538
604.93	14.431
605.26	14.362
605.59	14.245
605.92	14.157
606.25	14.093
606.58	13.999
606.91	13.901
607.24	13.827
607.57	13.780
607.90	13.733
608.23	13.661
608.56	13.609
608.89	13.555
609.22	13.484
609.55	13.409
609.88	13.304
610.21	13.244
610.54	13.121
610.87	13.025
611.20	12.920
611.53	12.767
611.86	12.688
612.19	12.598
612.52	12.448
612.85	12.381
613.18	12.295
613.51	12.209
613.84	12.111
614.17	12.115
614.49	12.060
614.82	11.980
615.15	11.940
615.48	11.875
615.81	11.822
616.14	11.829
616.47	11.819
616.80	11.783
617.13	11.740
617.46	11.700
617.78	11.612
618.11	11.584
618.44	11.540
618.77	11.510
619.10	11.469
619.43	11.436
619.76	11.385
620.09	11.303
620.41	11.298
620.74	11.260
621.07	11.281
621.40	11.286
621.73	11.242
622.06	11.251
622.38	11.235
622.71	11.241
623.04	11.272
623.37	11.253
623.70	11.255
624.02	11.245
624.35	11.304
624.68	11.285
625.01	11.272
625.34	11.265
625.66	11.262
625.99	11.222
626.32	11.181
626.65	11.082
626.98	11.028
627.30	10.984
627.63	10.921
627.96	10.837
628.29	10.746
628.61	10.684
628.94	10.627
629.27	10.536
629.60	10.497
629.92	10.421
630.25	10.419
630.58	10.413
630.91	10.402
631.23	10.358
631.56	10.359
631.89	10.318
632.21	10.282
632.54	10.222
632.87	10.156
633.19	10.132
633.52	10.072
633.85	10.003
634.18	9.959
634.50	9.870
634.83	9.843
635.16	9.722
635.48	9.655
635.81	9.584
636.14	9.532
636.46	9.509
636.79	9.414
637.11	9.411
637.44	9.359
637.77	9.265
638.09	9.245
638.42	9.165
638.75	9.137
639.07	9.119
639.40	9.082
639.73	9.027
640.05	9.024
640.38	9.041
640.70	9.002
641.03	9.017
641.36	9.017
641.68	8.958
642.01	9.000
642.33	9.004
642.66	9.053
642.98	9.091
643.31	9.194
643.64	9.199
643.96	9.222
644.29	9.278
644.61	9.312
644.94	9.381
645.26	9.455
645.59	9.437
645.91	9.479
646.24	9.518
646.56	9.507
646.89	9.457
647.22	9.452
647.54	9.416
647.87	9.362
648.19	9.372
648.52	9.292
648.84	9.240
649.17	9.218
649.49	9.190
649.82	9.103
