OOIBase32 Version 2.0.0.6 Data File
++++++++++++++++++++++++++++++++++++
Date: 01-18-2012, 22:45:15
User: Valued Ocean Optics Customer
Spectrometer Serial Number: USB2E2917
Spectrometer Channel: Master
Integration Time (msec): 5
Spectra Averaged: 10
Boxcar Smoothing: 5
Correct for Electrical Dark: Enabled
Time Normalized: Disabled
Dual-beam Reference: Disabled
Reference Channel: Master
Temperature: Not acquired
Spectrometer Type: S2000
ADC Type: USB2000
Number of Pixels in File: 2048
Graph Title: 
>>>>>Begin Spectral Data<<<<<
180.30	0.000
180.67	0.000
181.03	149.370
181.40	52.429
181.77	154.449
182.14	-88.343
182.51	35.508
182.88	181.507
183.25	138.293
183.62	31.560
183.99	-93.193
184.36	103.325
184.73	85.045
185.10	1278.204
185.46	162.565
185.83	306.748
186.20	6.484
186.57	593.733
186.94	151.553
187.31	38.977
187.68	612.645
188.05	108.641
188.42	67.676
188.78	24.466
189.15	24.148
189.52	14.050
189.89	10.135
190.26	20.448
190.63	15.649
191.00	0.880
191.37	1.865
191.73	13.264
192.10	25.028
192.47	32.874
192.84	41.170
193.21	40.211
193.58	50.249
193.94	52.799
194.31	64.129
194.68	66.418
195.05	81.062
195.42	75.171
195.79	67.463
196.15	66.644
196.52	63.962
196.89	66.865
197.26	62.774
197.63	62.829
198.00	59.743
198.36	41.114
198.73	29.212
199.10	11.778
199.47	17.511
199.84	-4.010
200.20	-3.371
200.57	5.762
200.94	3.697
201.31	-1.404
201.68	-27.254
202.04	-13.393
202.41	8.509
202.78	20.119
203.15	24.384
203.51	24.674
203.88	34.880
204.25	34.419
204.62	37.744
204.98	34.242
205.35	30.667
205.72	35.513
206.09	41.331
206.46	40.234
206.82	38.542
207.19	41.392
207.56	39.945
207.92	57.398
208.29	59.126
208.66	62.785
209.03	74.655
209.39	87.379
209.76	83.720
210.13	72.630
210.50	65.798
210.86	64.786
211.23	26.908
211.60	15.452
211.96	-17.542
212.33	-11.043
212.70	-32.294
213.07	-7.522
213.43	-17.316
213.80	-6.962
214.17	-10.025
214.53	4.759
214.90	15.561
215.27	25.334
215.63	25.774
216.00	28.883
216.37	17.069
216.74	25.783
217.10	11.733
217.47	16.095
217.84	9.494
218.20	9.373
218.57	-0.412
218.94	-8.081
219.30	-18.663
219.67	-16.537
220.04	-18.776
220.40	-13.882
220.77	-1.546
221.13	3.946
221.50	8.131
221.87	11.122
222.23	14.232
222.60	14.428
222.97	10.676
223.33	13.819
223.70	15.571
224.07	14.426
224.43	10.548
224.80	6.856
225.16	5.258
225.53	2.409
225.90	-0.187
226.26	0.586
226.63	0.844
226.99	0.800
227.36	-0.058
227.73	-0.111
228.09	0.349
228.46	4.050
228.82	4.982
229.19	5.257
229.56	4.967
229.92	7.094
230.29	6.075
230.65	6.507
231.02	6.071
231.38	6.467
231.75	6.600
232.12	8.279
232.48	6.847
232.85	5.283
233.21	5.382
233.58	5.915
233.94	5.384
234.31	4.411
234.68	3.340
235.04	4.774
235.41	5.574
235.77	7.392
236.14	5.415
236.50	4.626
236.87	4.803
237.23	4.135
237.60	3.093
237.96	3.216
238.33	4.048
238.69	4.235
239.06	3.746
239.42	3.227
239.79	1.898
240.15	2.087
240.52	2.382
240.88	2.208
241.25	2.049
241.61	2.789
241.98	2.992
242.34	2.842
242.71	3.041
243.07	2.995
243.44	2.878
243.80	3.310
244.17	3.190
244.53	3.342
244.90	3.497
245.26	3.734
245.63	3.951
245.99	3.840
246.36	3.776
246.72	3.780
247.09	3.838
247.45	3.784
247.81	3.586
248.18	3.928
248.54	3.842
248.91	3.965
249.27	4.165
249.64	4.310
250.00	4.352
250.36	4.689
250.73	4.835
251.09	4.775
251.46	5.096
251.82	5.536
252.19	5.009
252.55	4.972
252.91	4.743
253.28	4.691
253.64	3.750
254.01	3.542
254.37	3.664
254.73	3.665
255.10	4.079
255.46	4.268
255.83	4.105
256.19	4.304
256.55	4.107
256.92	4.034
257.28	4.127
257.65	4.314
258.01	4.383
258.37	4.180
258.74	3.946
259.10	3.728
259.46	3.693
259.83	3.670
260.19	3.503
260.55	3.628
260.92	3.788
261.28	3.762
261.64	3.639
262.01	3.526
262.37	3.869
262.73	4.050
263.10	4.224
263.46	4.103
263.82	4.162
264.19	4.548
264.55	4.356
264.91	4.486
265.28	4.384
265.64	4.010
266.00	3.692
266.37	3.223
266.73	3.361
267.09	3.380
267.46	3.624
267.82	3.379
268.18	3.123
268.54	3.268
268.91	3.193
269.27	2.808
269.63	2.740
270.00	3.012
270.36	3.298
270.72	3.469
271.08	3.569
271.45	3.411
271.81	3.574
272.17	3.404
272.53	3.230
272.90	3.098
273.26	3.179
273.62	3.211
273.98	3.135
274.35	3.094
274.71	2.836
275.07	2.426
275.43	2.291
275.80	2.313
276.16	2.302
276.52	2.329
276.88	2.137
277.25	2.395
277.61	2.735
277.97	2.996
278.33	2.799
278.69	2.782
279.06	3.253
279.42	3.245
279.78	3.255
280.14	3.428
280.50	3.486
280.87	3.575
281.23	3.325
281.59	3.263
281.95	3.370
282.31	3.479
282.68	3.354
283.04	3.230
283.40	3.299
283.76	3.380
284.12	3.258
284.48	3.121
284.85	3.244
285.21	3.516
285.57	3.893
285.93	3.804
286.29	3.714
286.65	3.758
287.02	3.800
287.38	3.877
287.74	3.809
288.10	4.095
288.46	4.276
288.82	4.229
289.18	4.093
289.54	3.992
289.91	3.938
290.27	4.108
290.63	3.975
290.99	3.959
291.35	3.729
291.71	3.686
292.07	3.822
292.43	3.832
292.79	3.998
293.16	4.020
293.52	3.910
293.88	3.973
294.24	4.047
294.60	4.202
294.96	4.058
295.32	4.237
295.68	4.170
296.04	3.940
296.40	3.996
296.76	3.820
297.12	3.781
297.49	3.755
297.85	3.687
298.21	3.564
298.57	3.563
298.93	3.584
299.29	3.700
299.65	3.868
300.01	4.029
300.37	3.984
300.73	3.897
301.09	3.957
301.45	4.148
301.81	4.259
302.17	4.154
302.53	4.224
302.89	4.247
303.25	4.232
303.61	4.315
303.97	4.362
304.33	4.373
304.69	4.469
305.05	4.511
305.41	4.394
305.77	4.417
306.13	4.663
306.49	4.654
306.85	4.726
307.21	4.679
307.57	4.600
307.93	4.488
308.29	4.540
308.65	4.655
309.01	4.554
309.37	4.380
309.73	4.328
310.09	4.205
310.45	4.212
310.81	4.184
311.17	4.089
311.53	4.161
311.89	4.119
312.25	4.043
312.61	4.008
312.96	3.963
313.32	4.169
313.68	4.027
314.04	4.040
314.40	4.028
314.76	4.073
315.12	4.213
315.48	4.137
315.84	4.226
316.20	4.199
316.56	4.095
316.92	4.238
317.27	4.162
317.63	4.338
317.99	4.458
318.35	4.543
318.71	4.514
319.07	4.370
319.43	4.286
319.79	4.255
320.15	4.331
320.50	4.399
320.86	4.441
321.22	4.615
321.58	4.570
321.94	4.505
322.30	4.538
322.66	4.587
323.01	4.680
323.37	4.924
323.73	5.006
324.09	5.063
324.45	5.134
324.81	5.118
325.17	5.010
325.52	5.136
325.88	5.160
326.24	5.197
326.60	5.314
326.96	5.370
327.31	5.219
327.67	5.148
328.03	4.987
328.39	5.022
328.75	4.989
329.11	5.019
329.46	4.968
329.82	4.987
330.18	4.878
330.54	4.814
330.90	4.821
331.25	4.858
331.61	4.856
331.97	5.021
332.33	4.916
332.68	5.063
333.04	5.164
333.40	5.238
333.76	5.256
334.11	5.309
334.47	5.267
334.83	5.296
335.19	5.332
335.54	5.430
335.90	5.470
336.26	5.494
336.62	5.447
336.97	5.435
337.33	5.424
337.69	5.537
338.05	5.581
338.40	5.633
338.76	5.616
339.12	5.536
339.48	5.462
339.83	5.467
340.19	5.547
340.55	5.621
340.90	5.612
341.26	5.563
341.62	5.386
341.97	5.485
342.33	5.435
342.69	5.468
343.04	5.464
343.40	5.607
343.76	5.502
344.12	5.530
344.47	5.431
344.83	5.475
345.19	5.495
345.54	5.625
345.90	5.575
346.26	5.705
346.61	5.671
346.97	5.758
347.32	5.683
347.68	5.813
348.04	5.868
348.39	5.927
348.75	5.822
349.11	5.856
349.46	5.830
349.82	5.741
350.18	5.609
350.53	5.662
350.89	5.602
351.24	5.611
351.60	5.604
351.96	5.547
352.31	5.458
352.67	5.491
353.02	5.426
353.38	5.405
353.74	5.451
354.09	5.590
354.45	5.605
354.80	5.643
355.16	5.716
355.52	5.661
355.87	5.671
356.23	5.710
356.58	5.632
356.94	5.746
357.29	5.753
357.65	5.773
358.00	5.658
358.36	5.671
358.72	5.676
359.07	5.639
359.43	5.640
359.78	5.699
360.14	5.761
360.49	5.809
360.85	5.723
361.20	5.759
361.56	5.740
361.91	5.823
362.27	5.842
362.62	5.877
362.98	5.886
363.33	5.901
363.69	5.864
364.04	5.813
364.40	5.871
364.75	5.904
365.11	5.937
365.46	5.966
365.82	5.970
366.17	5.969
366.53	6.027
366.88	6.083
367.24	6.119
367.59	6.113
367.95	6.135
368.30	6.172
368.66	6.215
369.01	6.161
369.37	6.174
369.72	6.151
370.08	6.110
370.43	6.044
370.78	6.046
371.14	6.044
371.49	6.103
371.85	6.181
372.20	6.143
372.56	6.191
372.91	6.290
373.26	6.288
373.62	6.292
373.97	6.344
374.33	6.402
374.68	6.311
375.03	6.342
375.39	6.351
375.74	6.427
376.10	6.458
376.45	6.427
376.80	6.467
377.16	6.578
377.51	6.630
377.87	6.701
378.22	6.752
378.57	6.866
378.93	6.911
379.28	6.916
379.63	6.920
379.99	6.954
380.34	6.977
380.70	6.968
381.05	6.965
381.40	7.024
381.76	7.044
382.11	7.089
382.46	7.176
382.82	7.174
383.17	7.310
383.52	7.319
383.88	7.445
384.23	7.528
384.58	7.590
384.94	7.657
385.29	7.682
385.64	7.709
385.99	7.739
386.35	7.726
386.70	7.818
387.05	7.767
387.41	7.830
387.76	7.835
388.11	7.861
388.47	7.902
388.82	7.928
389.17	7.990
389.52	8.042
389.88	8.069
390.23	8.188
390.58	8.226
390.93	8.280
391.29	8.292
391.64	8.374
391.99	8.391
392.34	8.420
392.70	8.492
393.05	8.525
393.40	8.569
393.75	8.647
394.11	8.683
394.46	8.732
394.81	8.804
395.16	8.900
395.52	8.867
395.87	8.963
396.22	8.983
396.57	9.000
396.92	8.994
397.28	9.038
397.63	9.082
397.98	9.101
398.33	9.155
398.68	9.152
399.04	9.168
399.39	9.270
399.74	9.277
400.09	9.366
400.44	9.414
400.80	9.477
401.15	9.514
401.50	9.537
401.85	9.568
402.20	9.592
402.55	9.664
402.90	9.706
403.26	9.725
403.61	9.813
403.96	9.857
404.31	9.897
404.66	9.981
405.01	10.021
405.36	10.071
405.72	10.118
406.07	10.180
406.42	10.241
406.77	10.289
407.12	10.329
407.47	10.369
407.82	10.401
408.17	10.425
408.53	10.476
408.88	10.494
409.23	10.511
409.58	10.521
409.93	10.564
410.28	10.568
410.63	10.609
410.98	10.651
411.33	10.691
411.68	10.739
412.03	10.786
412.38	10.823
412.73	10.892
413.09	10.929
413.44	10.984
413.79	11.031
414.14	11.069
414.49	11.110
414.84	11.137
415.19	11.153
415.54	11.191
415.89	11.219
416.24	11.248
416.59	11.278
416.94	11.320
417.29	11.367
417.64	11.397
417.99	11.442
418.34	11.449
418.69	11.475
419.04	11.512
419.39	11.563
419.74	11.632
420.09	11.659
420.44	11.701
420.79	11.741
421.14	11.775
421.49	11.811
421.84	11.849
422.19	11.890
422.54	11.935
422.89	11.971
423.24	11.989
423.59	12.006
423.94	12.043
424.29	12.073
424.64	12.113
424.99	12.135
425.34	12.176
425.68	12.208
426.03	12.236
426.38	12.284
426.73	12.318
427.08	12.332
427.43	12.366
427.78	12.407
428.13	12.446
428.48	12.468
428.83	12.502
429.18	12.537
429.53	12.577
429.87	12.627
430.22	12.645
430.57	12.657
430.92	12.700
431.27	12.751
431.62	12.771
431.97	12.808
432.32	12.838
432.67	12.870
433.01	12.890
433.36	12.899
433.71	12.928
434.06	12.968
434.41	13.015
434.76	13.040
435.11	13.044
435.45	13.090
435.80	13.131
436.15	13.171
436.50	13.202
436.85	13.226
437.20	13.259
437.54	13.303
437.89	13.321
438.24	13.366
438.59	13.416
438.94	13.433
439.29	13.455
439.63	13.447
439.98	13.477
440.33	13.499
440.68	13.541
441.03	13.589
441.37	13.619
441.72	13.623
442.07	13.636
442.42	13.639
442.76	13.659
443.11	13.690
443.46	13.718
443.81	13.720
444.16	13.741
444.50	13.732
444.85	13.734
445.20	13.731
445.55	13.752
445.89	13.782
446.24	13.815
446.59	13.841
446.94	13.837
447.28	13.866
447.63	13.879
447.98	13.900
448.32	13.919
448.67	13.927
449.02	13.961
449.37	13.987
449.71	13.990
450.06	13.985
450.41	14.018
450.75	14.033
451.10	14.027
451.45	14.073
451.79	14.081
452.14	14.120
452.49	14.151
452.84	14.185
453.18	14.227
453.53	14.230
453.88	14.265
454.22	14.293
454.57	14.324
454.92	14.378
455.26	14.406
455.61	14.449
455.95	14.467
456.30	14.502
456.65	14.493
456.99	14.494
457.34	14.522
457.69	14.534
458.03	14.546
458.38	14.564
458.73	14.576
459.07	14.587
459.42	14.600
459.76	14.629
460.11	14.639
460.46	14.691
460.80	14.720
461.15	14.743
461.49	14.768
461.84	14.784
462.19	14.836
462.53	14.876
462.88	14.914
463.22	14.921
463.57	14.938
463.91	14.982
464.26	15.003
464.61	15.035
464.95	15.071
465.30	15.084
465.64	15.129
465.99	15.139
466.33	15.163
466.68	15.207
467.02	15.254
467.37	15.281
467.71	15.323
468.06	15.349
468.41	15.372
468.75	15.432
469.10	15.500
469.44	15.511
469.79	15.523
470.13	15.529
470.48	15.538
470.82	15.574
471.17	15.600
471.51	15.596
471.86	15.606
472.20	15.624
472.55	15.619
472.89	15.616
473.23	15.639
473.58	15.688
473.92	15.730
474.27	15.746
474.61	15.754
474.96	15.777
475.30	15.813
475.65	15.824
475.99	15.885
476.34	15.912
476.68	15.945
477.02	15.965
477.37	15.958
477.71	15.991
478.06	16.012
478.40	16.054
478.75	16.139
479.09	16.205
479.43	16.339
479.78	16.442
480.12	16.568
480.47	16.662
480.81	16.775
481.15	16.879
481.50	16.962
481.84	17.061
482.19	17.155
482.53	17.239
482.87	17.297
483.22	17.332
483.56	17.343
483.90	17.335
484.25	17.345
484.59	17.327
484.94	17.314
485.28	17.284
485.62	17.247
485.97	17.209
486.31	17.164
486.65	17.142
487.00	17.142
487.34	17.157
487.68	17.180
488.03	17.183
488.37	17.213
488.71	17.242
489.06	17.275
489.40	17.316
489.74	17.337
490.09	17.353
490.43	17.369
490.77	17.350
491.11	17.364
491.46	17.373
491.80	17.411
492.14	17.412
492.49	17.422
492.83	17.442
493.17	17.437
493.51	17.447
493.86	17.469
494.20	17.526
494.54	17.577
494.88	17.614
495.23	17.651
495.57	17.677
495.91	17.723
496.25	17.767
496.60	17.790
496.94	17.855
497.28	17.922
497.62	17.969
497.97	18.013
498.31	18.091
498.65	18.164
498.99	18.229
499.33	18.267
499.68	18.322
500.02	18.385
500.36	18.462
500.70	18.479
501.04	18.549
501.39	18.610
501.73	18.670
502.07	18.713
502.41	18.745
502.75	18.793
503.09	18.874
503.44	18.916
503.78	18.938
504.12	19.005
504.46	19.090
504.80	19.116
505.14	19.173
505.49	19.227
505.83	19.262
506.17	19.310
506.51	19.359
506.85	19.406
507.19	19.479
507.53	19.527
507.87	19.562
508.22	19.606
508.56	19.681
508.90	19.756
509.24	19.803
509.58	19.885
509.92	19.941
510.26	19.992
510.60	20.034
510.94	20.093
511.28	20.169
511.63	20.239
511.97	20.317
512.31	20.366
512.65	20.409
512.99	20.466
513.33	20.512
513.67	20.583
514.01	20.652
514.35	20.724
514.69	20.795
515.03	20.863
515.37	20.960
515.71	21.009
516.05	21.067
516.39	21.127
516.73	21.208
517.07	21.261
517.41	21.315
517.75	21.346
518.09	21.389
518.43	21.435
518.77	21.490
519.11	21.514
519.45	21.579
519.79	21.642
520.13	21.714
520.47	21.769
520.81	21.815
521.15	21.872
521.49	21.957
521.83	22.071
522.17	22.166
522.51	22.236
522.85	22.332
523.19	22.448
523.53	22.607
523.87	22.755
524.21	22.901
524.55	23.077
524.89	23.247
525.23	23.419
525.57	23.541
525.91	23.655
526.25	23.781
526.58	23.896
526.92	23.988
527.26	24.056
527.60	24.115
527.94	24.168
528.28	24.201
528.62	24.228
528.96	24.253
529.30	24.275
529.64	24.300
529.97	24.325
530.31	24.342
530.65	24.361
530.99	24.386
531.33	24.437
531.67	24.480
532.01	24.545
532.35	24.620
532.68	24.663
533.02	24.685
533.36	24.737
533.70	24.764
534.04	24.801
534.38	24.840
534.71	24.884
535.05	24.944
535.39	25.014
535.73	25.078
536.07	25.139
536.41	25.224
536.74	25.381
537.08	25.493
537.42	25.638
537.76	25.751
538.10	25.877
538.43	25.995
538.77	26.091
539.11	26.204
539.45	26.310
539.79	26.390
540.12	26.463
540.46	26.501
540.80	26.549
541.14	26.597
541.47	26.642
541.81	26.687
542.15	26.701
542.49	26.731
542.82	26.756
543.16	26.792
543.50	26.831
543.84	26.873
544.17	26.959
544.51	27.020
544.85	27.076
545.18	27.129
545.52	27.198
545.86	27.330
546.20	27.400
546.53	27.488
546.87	27.532
547.21	27.602
547.54	27.690
547.88	27.761
548.22	27.868
548.55	27.947
548.89	28.086
549.23	28.152
549.56	28.222
549.90	28.330
550.24	28.396
550.57	28.511
550.91	28.610
551.25	28.692
551.58	28.767
551.92	28.839
552.26	28.914
552.59	28.979
552.93	29.107
553.27	29.200
553.60	29.276
553.94	29.371
554.27	29.448
554.61	29.529
554.95	29.629
555.28	29.683
555.62	29.790
555.95	29.913
556.29	29.996
556.63	30.050
556.96	30.137
557.30	30.218
557.63	30.322
557.97	30.419
558.31	30.480
558.64	30.549
558.98	30.683
559.31	30.749
559.65	30.819
559.98	30.878
560.32	30.962
560.65	31.018
560.99	31.087
561.33	31.119
561.66	31.191
562.00	31.268
562.33	31.344
562.67	31.418
563.00	31.473
563.34	31.508
563.67	31.575
564.01	31.661
564.34	31.710
564.68	31.804
565.01	31.893
565.35	31.954
565.68	32.045
566.02	32.176
566.35	32.224
566.69	32.311
567.02	32.406
567.36	32.521
567.69	32.606
568.03	32.682
568.36	32.769
568.69	32.845
569.03	32.895
569.36	32.942
569.70	32.958
570.03	33.032
570.37	33.111
570.70	33.185
571.04	33.237
571.37	33.296
571.70	33.381
572.04	33.430
572.37	33.522
572.71	33.623
573.04	33.700
573.37	33.800
573.71	33.896
574.04	33.961
574.38	34.008
574.71	34.073
575.04	34.126
575.38	34.226
575.71	34.257
576.05	34.322
576.38	34.389
576.71	34.492
577.05	34.534
577.38	34.572
577.71	34.636
578.05	34.741
578.38	34.814
578.71	34.927
579.05	34.978
579.38	35.093
579.71	35.135
580.05	35.193
580.38	35.239
580.71	35.325
581.05	35.413
581.38	35.498
581.71	35.550
582.05	35.629
582.38	35.652
582.71	35.753
583.04	35.807
583.38	35.879
583.71	35.947
584.04	36.039
584.38	36.079
584.71	36.143
585.04	36.216
585.37	36.299
585.71	36.379
586.04	36.479
586.37	36.526
586.70	36.581
587.04	36.658
587.37	36.752
587.70	36.824
588.03	36.926
588.37	37.030
588.70	37.080
589.03	37.154
589.36	37.265
589.69	37.338
590.03	37.386
590.36	37.479
590.69	37.551
591.02	37.573
591.35	37.634
591.69	37.687
592.02	37.701
592.35	37.729
592.68	37.812
593.01	37.816
593.35	37.860
593.68	37.941
594.01	37.987
594.34	38.056
594.67	38.131
595.00	38.197
595.34	38.283
595.67	38.354
596.00	38.462
596.33	38.497
596.66	38.571
596.99	38.628
597.32	38.748
597.65	38.839
597.99	38.930
598.32	39.043
598.65	39.144
598.98	39.265
599.31	39.385
599.64	39.455
599.97	39.521
600.30	39.583
600.63	39.662
600.96	39.670
601.30	39.718
601.63	39.749
601.96	39.761
602.29	39.805
602.62	39.810
602.95	39.863
603.28	39.942
603.61	40.023
603.94	40.126
604.27	40.227
604.60	40.308
604.93	40.417
605.26	40.531
605.59	40.650
605.92	40.779
606.25	40.901
606.58	40.966
606.91	41.042
607.24	41.118
607.57	41.182
607.90	41.210
608.23	41.258
608.56	41.340
608.89	41.404
609.22	41.484
609.55	41.513
609.88	41.546
610.21	41.651
610.54	41.749
610.87	41.887
611.20	41.965
611.53	42.085
611.86	42.181
612.19	42.288
612.52	42.361
612.85	42.430
613.18	42.483
613.51	42.560
613.84	42.630
614.17	42.647
614.49	42.684
614.82	42.761
615.15	42.862
615.48	42.911
615.81	42.932
616.14	43.006
616.47	43.068
616.80	43.191
617.13	43.261
617.46	43.353
617.78	43.436
618.11	43.511
618.44	43.610
618.77	43.647
619.10	43.764
619.43	43.815
619.76	43.881
620.09	43.987
620.41	43.992
620.74	44.065
621.07	44.028
621.40	44.124
621.73	44.167
622.06	44.208
622.38	44.251
622.71	44.319
623.04	44.406
623.37	44.502
623.70	44.560
624.02	44.651
624.35	44.725
624.68	44.852
625.01	44.892
625.34	44.963
625.66	44.982
625.99	45.030
626.32	45.066
626.65	45.164
626.98	45.220
627.30	45.289
627.63	45.385
627.96	45.421
628.29	45.459
628.61	45.532
628.94	45.609
629.27	45.668
629.60	45.763
629.92	45.822
630.25	45.877
630.58	45.904
630.91	45.911
631.23	45.939
631.56	46.038
631.89	46.139
632.21	46.193
632.54	46.211
632.87	46.261
633.19	46.323
633.52	46.407
633.85	46.415
634.18	46.508
634.50	46.588
634.83	46.601
635.16	46.693
635.48	46.722
635.81	46.792
636.14	46.856
636.46	46.998
636.79	47.076
637.11	47.151
637.44	47.255
637.77	47.249
638.09	47.322
638.42	47.398
638.75	47.327
639.07	47.404
639.40	47.431
639.73	47.485
640.05	47.460
640.38	47.440
640.70	47.446
641.03	47.450
641.36	47.426
641.68	47.436
642.01	47.467
642.33	47.543
642.66	47.562
642.98	47.572
643.31	47.601
643.64	47.670
