OOIBase32 Version 2.0.0.6 Data File
++++++++++++++++++++++++++++++++++++
Date: 01-18-2012, 22:46:53
User: Valued Ocean Optics Customer
Spectrometer Serial Number: USB2E2917
Spectrometer Channel: Master
Integration Time (msec): 5
Spectra Averaged: 10
Boxcar Smoothing: 5
Correct for Electrical Dark: Enabled
Time Normalized: Disabled
Dual-beam Reference: Disabled
Reference Channel: Master
Temperature: Not acquired
Spectrometer Type: S2000
ADC Type: USB2000
Number of Pixels in File: 2048
Graph Title: 
>>>>>Begin Spectral Data<<<<<
180.30	0.000
180.67	0.000
181.03	30.729
181.40	20.822
181.77	90.751
182.14	92.086
182.51	48.962
182.88	74.141
183.25	162.414
183.62	70.910
183.99	110.971
184.36	277.996
184.73	93.548
185.10	-612.063
185.46	172.583
185.83	147.460
186.20	7.132
186.57	821.005
186.94	391.792
187.31	7.445
187.68	-1465.487
188.05	179.286
188.42	123.624
188.78	66.673
189.15	35.301
189.52	25.071
189.89	36.293
190.26	33.106
190.63	28.147
191.00	21.699
191.37	32.350
191.73	17.857
192.10	20.754
192.47	25.043
192.84	31.107
193.21	25.201
193.58	31.092
193.94	40.286
194.31	46.589
194.68	43.733
195.05	45.020
195.42	41.487
195.79	33.136
196.15	33.544
196.52	22.043
196.89	19.095
197.26	26.726
197.63	31.357
198.00	24.585
198.36	13.925
198.73	10.146
199.10	-0.859
199.47	9.604
199.84	20.928
200.20	4.910
200.57	7.099
200.94	6.627
201.31	3.558
201.68	-19.510
202.04	-18.237
202.41	-10.229
202.78	-19.753
203.15	-13.374
203.51	-15.351
203.88	-19.190
204.25	-8.855
204.62	6.289
204.98	4.143
205.35	-4.957
205.72	10.511
206.09	19.588
206.46	18.622
206.82	24.700
207.19	25.050
207.56	27.591
207.92	37.013
208.29	56.777
208.66	60.589
209.03	95.125
209.39	105.324
209.76	101.056
210.13	72.285
210.50	69.346
210.86	50.721
211.23	48.615
211.60	26.325
211.96	22.288
212.33	2.180
212.70	-23.379
213.07	-12.685
213.43	-11.749
213.80	-11.513
214.17	-8.200
214.53	3.930
214.90	18.934
215.27	17.917
215.63	21.913
216.00	12.416
216.37	19.364
216.74	30.845
217.10	24.766
217.47	18.277
217.84	20.820
218.20	23.502
218.57	19.380
218.94	4.545
219.30	-8.436
219.67	-1.568
220.04	-3.917
220.40	-6.260
220.77	5.915
221.13	8.017
221.50	15.969
221.87	17.633
222.23	18.251
222.60	17.998
222.97	19.901
223.33	21.367
223.70	24.089
224.07	26.252
224.43	21.939
224.80	19.113
225.16	17.805
225.53	12.893
225.90	9.112
226.26	7.439
226.63	6.911
226.99	6.478
227.36	5.215
227.73	3.797
228.09	3.392
228.46	6.369
228.82	5.853
229.19	6.695
229.56	7.908
229.92	8.807
230.29	9.895
230.65	10.067
231.02	9.242
231.38	8.918
231.75	9.022
232.12	10.145
232.48	8.778
232.85	6.947
233.21	5.590
233.58	5.451
233.94	5.765
234.31	5.524
234.68	6.867
235.04	9.662
235.41	11.412
235.77	10.925
236.14	7.895
236.50	6.901
236.87	8.215
237.23	8.430
237.60	7.669
237.96	7.612
238.33	7.146
238.69	6.403
239.06	5.274
239.42	4.203
239.79	3.570
240.15	4.476
240.52	4.150
240.88	3.641
241.25	3.505
241.61	3.856
241.98	3.920
242.34	4.277
242.71	4.593
243.07	4.881
243.44	5.258
243.80	5.392
244.17	5.207
244.53	5.832
244.90	6.136
245.26	6.170
245.63	6.390
245.99	6.328
246.36	6.130
246.72	6.113
247.09	6.068
247.45	6.026
247.81	6.084
248.18	6.210
248.54	5.883
248.91	5.877
249.27	6.328
249.64	6.306
250.00	6.260
250.36	6.514
250.73	6.369
251.09	5.940
251.46	6.033
251.82	6.535
252.19	6.519
252.55	6.609
252.91	6.061
253.28	5.010
253.64	4.479
254.01	4.341
254.37	4.747
254.73	4.729
255.10	5.049
255.46	5.280
255.83	5.263
256.19	5.411
256.55	5.022
256.92	5.648
257.28	5.924
257.65	6.081
258.01	6.380
258.37	6.046
258.74	5.927
259.10	6.119
259.46	6.080
259.83	6.216
260.19	6.194
260.55	6.470
260.92	6.042
261.28	5.907
261.64	5.517
262.01	5.213
262.37	5.329
262.73	5.404
263.10	5.516
263.46	5.852
263.82	5.867
264.19	5.818
264.55	5.888
264.91	6.115
265.28	6.231
265.64	6.330
266.00	6.241
266.37	6.249
266.73	6.326
267.09	5.992
267.46	5.795
267.82	5.443
268.18	5.796
268.54	5.989
268.91	5.996
269.27	5.694
269.63	5.643
270.00	5.585
270.36	5.556
270.72	5.502
271.08	5.569
271.45	5.267
271.81	5.364
272.17	4.601
272.53	4.199
272.90	4.307
273.26	4.426
273.62	4.400
273.98	4.442
274.35	4.254
274.71	4.334
275.07	4.148
275.43	4.366
275.80	4.316
276.16	4.621
276.52	4.725
276.88	4.509
277.25	4.456
277.61	4.592
277.97	4.726
278.33	4.882
278.69	4.706
279.06	5.094
279.42	4.841
279.78	4.838
280.14	5.076
280.50	5.071
280.87	5.174
281.23	5.192
281.59	5.127
281.95	5.265
282.31	5.140
282.68	5.208
283.04	4.915
283.40	4.941
283.76	4.938
284.12	4.754
284.48	4.781
284.85	4.661
285.21	4.480
285.57	4.783
285.93	4.541
286.29	4.598
286.65	4.432
287.02	4.437
287.38	4.544
287.74	4.552
288.10	4.849
288.46	4.945
288.82	5.062
289.18	5.143
289.54	5.157
289.91	5.224
290.27	5.370
290.63	5.581
290.99	5.725
291.35	5.584
291.71	5.739
292.07	5.673
292.43	5.531
292.79	5.396
293.16	5.542
293.52	5.303
293.88	5.554
294.24	5.580
294.60	5.510
294.96	5.519
295.32	5.769
295.68	5.717
296.04	5.670
296.40	5.835
296.76	6.018
297.12	5.962
297.49	6.203
297.85	6.311
298.21	6.223
298.57	6.518
298.93	6.525
299.29	6.718
299.65	6.938
300.01	7.232
300.37	7.292
300.73	7.272
301.09	7.715
301.45	7.897
301.81	7.934
302.17	8.066
302.53	8.220
302.89	8.569
303.25	8.751
303.61	8.951
303.97	9.173
304.33	9.381
304.69	9.731
305.05	9.851
305.41	9.969
305.77	10.216
306.13	10.601
306.49	10.734
306.85	11.053
307.21	11.080
307.57	11.150
307.93	11.330
308.29	11.388
308.65	11.552
309.01	11.631
309.37	11.680
309.73	11.697
310.09	11.762
310.45	11.948
310.81	11.923
311.17	12.124
311.53	12.441
311.89	12.330
312.25	12.490
312.61	12.457
312.96	12.584
313.32	12.661
313.68	12.612
314.04	12.574
314.40	12.581
314.76	12.479
315.12	12.455
315.48	12.264
315.84	12.425
316.20	12.451
316.56	12.551
316.92	12.455
317.27	12.524
317.63	12.583
317.99	12.607
318.35	12.598
318.71	12.710
319.07	12.587
319.43	12.588
319.79	12.517
320.15	12.441
320.50	12.424
320.86	12.445
321.22	12.359
321.58	12.391
321.94	12.444
322.30	12.342
322.66	12.263
323.01	12.285
323.37	12.202
323.73	12.187
324.09	12.271
324.45	12.300
324.81	12.242
325.17	12.110
325.52	11.944
325.88	11.847
326.24	11.926
326.60	12.055
326.96	12.072
327.31	12.143
327.67	12.017
328.03	11.807
328.39	11.751
328.75	11.739
329.11	11.748
329.46	11.901
329.82	11.777
330.18	11.635
330.54	11.402
330.90	11.304
331.25	11.116
331.61	11.087
331.97	11.100
332.33	11.000
332.68	10.956
333.04	11.044
333.40	10.992
333.76	11.184
334.11	11.069
334.47	11.138
334.83	11.262
335.19	11.378
335.54	11.492
335.90	11.623
336.26	11.423
336.62	11.348
336.97	11.209
337.33	11.221
337.69	11.081
338.05	11.034
338.40	10.893
338.76	10.722
339.12	10.536
339.48	10.379
339.83	10.208
340.19	10.375
340.55	10.439
340.90	10.499
341.26	10.348
341.62	10.143
341.97	10.229
342.33	10.252
342.69	10.205
343.04	10.270
343.40	10.391
343.76	10.369
344.12	10.334
344.47	10.287
344.83	10.158
345.19	10.166
345.54	10.268
345.90	10.216
346.26	10.104
346.61	10.007
346.97	9.907
347.32	9.720
347.68	9.656
348.04	9.620
348.39	9.555
348.75	9.504
349.11	9.479
349.46	9.436
349.82	9.300
350.18	9.292
350.53	9.340
350.89	9.274
351.24	9.211
351.60	9.262
351.96	9.213
352.31	9.089
352.67	9.056
353.02	8.982
353.38	8.910
353.74	8.884
354.09	8.917
354.45	8.841
354.80	8.893
355.16	8.886
355.52	8.701
355.87	8.597
356.23	8.543
356.58	8.465
356.94	8.437
357.29	8.430
357.65	8.425
358.00	8.293
358.36	8.235
358.72	8.117
359.07	8.068
359.43	8.053
359.78	8.072
360.14	8.051
360.49	8.044
360.85	7.954
361.20	7.856
361.56	7.843
361.91	7.757
362.27	7.702
362.62	7.725
362.98	7.690
363.33	7.718
363.69	7.635
364.04	7.597
364.40	7.584
364.75	7.538
365.11	7.558
365.46	7.518
365.82	7.561
366.17	7.568
366.53	7.515
366.88	7.454
367.24	7.405
367.59	7.395
367.95	7.378
368.30	7.349
368.66	7.385
369.01	7.305
369.37	7.258
369.72	7.204
370.08	7.156
370.43	7.102
370.78	7.093
371.14	7.044
371.49	6.991
371.85	7.009
372.20	6.964
372.56	6.993
372.91	7.065
373.26	7.036
373.62	7.054
373.97	7.071
374.33	7.065
374.68	7.010
375.03	7.012
375.39	6.995
375.74	6.995
376.10	6.955
376.45	6.861
376.80	6.745
377.16	6.708
377.51	6.598
377.87	6.570
378.22	6.513
378.57	6.511
378.93	6.487
379.28	6.423
379.63	6.368
379.99	6.376
380.34	6.354
380.70	6.352
381.05	6.331
381.40	6.368
381.76	6.345
382.11	6.326
382.46	6.297
382.82	6.210
383.17	6.273
383.52	6.292
383.88	6.347
384.23	6.326
384.58	6.310
384.94	6.304
385.29	6.268
385.64	6.211
385.99	6.218
386.35	6.206
386.70	6.231
387.05	6.164
387.41	6.100
387.76	6.013
388.11	5.967
388.47	5.954
388.82	5.912
389.17	5.923
389.52	5.917
389.88	5.880
390.23	5.870
390.58	5.861
390.93	5.843
391.29	5.775
391.64	5.722
391.99	5.722
392.34	5.682
392.70	5.680
393.05	5.613
393.40	5.594
393.75	5.551
394.11	5.534
394.46	5.487
394.81	5.489
395.16	5.509
395.52	5.506
395.87	5.460
396.22	5.443
396.57	5.407
396.92	5.418
397.28	5.382
397.63	5.395
397.98	5.377
398.33	5.345
398.68	5.285
399.04	5.268
399.39	5.259
399.74	5.252
400.09	5.238
400.44	5.208
400.80	5.135
401.15	5.088
401.50	5.063
401.85	5.074
402.20	5.053
402.55	5.036
402.90	5.019
403.26	4.988
403.61	4.964
403.96	4.951
404.31	4.954
404.66	4.991
405.01	5.008
405.36	4.981
405.72	4.935
406.07	4.939
406.42	4.949
406.77	4.931
407.12	4.947
407.47	4.977
407.82	4.969
408.17	4.951
408.53	4.967
408.88	4.938
409.23	4.946
409.58	4.925
409.93	4.896
410.28	4.842
410.63	4.843
410.98	4.811
411.33	4.766
411.68	4.779
412.03	4.763
412.38	4.736
412.73	4.742
413.09	4.696
413.44	4.676
413.79	4.686
414.14	4.708
414.49	4.688
414.84	4.692
415.19	4.692
415.54	4.664
415.89	4.680
416.24	4.678
416.59	4.679
416.94	4.692
417.29	4.700
417.64	4.693
417.99	4.691
418.34	4.679
418.69	4.668
419.04	4.660
419.39	4.668
419.74	4.657
420.09	4.644
420.44	4.643
420.79	4.641
421.14	4.640
421.49	4.646
421.84	4.632
422.19	4.633
422.54	4.640
422.89	4.637
423.24	4.629
423.59	4.638
423.94	4.629
424.29	4.628
424.64	4.622
424.99	4.603
425.34	4.601
425.68	4.603
426.03	4.608
426.38	4.589
426.73	4.589
427.08	4.577
427.43	4.549
427.78	4.553
428.13	4.554
428.48	4.564
428.83	4.577
429.18	4.556
429.53	4.554
429.87	4.552
430.22	4.557
430.57	4.538
430.92	4.522
431.27	4.518
431.62	4.499
431.97	4.475
432.32	4.459
432.67	4.459
433.01	4.452
433.36	4.450
433.71	4.434
434.06	4.436
434.41	4.442
434.76	4.461
435.11	4.457
435.45	4.482
435.80	4.503
436.15	4.501
436.50	4.506
436.85	4.512
437.20	4.521
437.54	4.528
437.89	4.525
438.24	4.541
438.59	4.533
438.94	4.531
439.29	4.533
439.63	4.532
439.98	4.533
440.33	4.534
440.68	4.521
441.03	4.543
441.37	4.548
441.72	4.533
442.07	4.533
442.42	4.542
442.76	4.555
443.11	4.559
443.46	4.564
443.81	4.583
444.16	4.569
444.50	4.580
444.85	4.547
445.20	4.546
445.55	4.533
445.89	4.514
446.24	4.508
446.59	4.487
446.94	4.456
447.28	4.435
447.63	4.398
447.98	4.387
448.32	4.348
448.67	4.341
449.02	4.310
449.37	4.330
449.71	4.332
450.06	4.322
450.41	4.345
450.75	4.373
451.10	4.357
451.45	4.359
451.79	4.365
452.14	4.389
452.49	4.384
452.84	4.406
453.18	4.402
453.53	4.391
453.88	4.381
454.22	4.378
454.57	4.382
454.92	4.384
455.26	4.397
455.61	4.409
455.95	4.405
456.30	4.431
456.65	4.432
456.99	4.441
457.34	4.453
457.69	4.467
458.03	4.463
458.38	4.455
458.73	4.479
459.07	4.483
459.42	4.476
459.76	4.489
460.11	4.472
460.46	4.481
460.80	4.469
461.15	4.464
461.49	4.457
461.84	4.459
462.19	4.465
462.53	4.450
462.88	4.441
463.22	4.449
463.57	4.447
463.91	4.464
464.26	4.458
464.61	4.476
464.95	4.493
465.30	4.483
465.64	4.483
465.99	4.478
466.33	4.495
466.68	4.484
467.02	4.505
467.37	4.492
467.71	4.474
468.06	4.471
468.41	4.459
468.75	4.456
469.10	4.489
469.44	4.485
469.79	4.489
470.13	4.467
470.48	4.467
470.82	4.430
471.17	4.450
471.51	4.459
471.86	4.458
472.20	4.440
472.55	4.426
472.89	4.395
473.23	4.390
473.58	4.384
473.92	4.397
474.27	4.416
474.61	4.418
474.96	4.408
475.30	4.385
475.65	4.363
475.99	4.375
476.34	4.372
476.68	4.379
477.02	4.375
477.37	4.355
477.71	4.342
478.06	4.329
478.40	4.335
478.75	4.375
479.09	4.419
479.43	4.468
479.78	4.511
480.12	4.560
480.47	4.587
480.81	4.625
481.15	4.669
481.50	4.702
481.84	4.736
482.19	4.761
482.53	4.775
482.87	4.785
483.22	4.788
483.56	4.784
483.90	4.770
484.25	4.763
484.59	4.749
484.94	4.727
485.28	4.705
485.62	4.672
485.97	4.649
486.31	4.615
486.65	4.594
487.00	4.580
487.34	4.560
487.68	4.548
488.03	4.537
488.37	4.532
488.71	4.526
489.06	4.517
489.40	4.521
489.74	4.516
490.09	4.519
490.43	4.516
490.77	4.505
491.11	4.491
491.46	4.476
491.80	4.464
492.14	4.438
492.49	4.427
492.83	4.420
493.17	4.395
493.51	4.387
493.86	4.389
494.20	4.384
494.54	4.387
494.88	4.412
495.23	4.432
495.57	4.451
495.91	4.474
496.25	4.477
496.60	4.481
496.94	4.504
497.28	4.519
497.62	4.529
497.97	4.538
498.31	4.563
498.65	4.589
498.99	4.618
499.33	4.630
499.68	4.637
500.02	4.662
500.36	4.699
500.70	4.728
501.04	4.759
501.39	4.776
501.73	4.809
502.07	4.836
502.41	4.856
502.75	4.880
503.09	4.934
503.44	5.005
503.78	5.060
504.12	5.109
504.46	5.154
504.80	5.182
505.14	5.229
505.49	5.274
505.83	5.321
506.17	5.358
506.51	5.409
506.85	5.446
507.19	5.493
507.53	5.522
507.87	5.572
508.22	5.617
508.56	5.684
508.90	5.752
509.24	5.803
509.58	5.855
509.92	5.909
510.26	5.971
510.60	6.014
510.94	6.047
511.28	6.120
511.63	6.163
511.97	6.214
512.31	6.254
512.65	6.296
512.99	6.349
513.33	6.426
513.67	6.491
514.01	6.563
514.35	6.634
514.69	6.723
515.03	6.795
515.37	6.849
515.71	6.898
516.05	6.957
516.39	7.007
516.73	7.068
517.07	7.080
517.41	7.125
517.75	7.144
518.09	7.185
518.43	7.205
518.77	7.242
519.11	7.278
519.45	7.321
519.79	7.373
520.13	7.410
520.47	7.437
520.81	7.494
521.15	7.544
521.49	7.610
521.83	7.662
522.17	7.730
522.51	7.769
522.85	7.837
523.19	7.917
523.53	8.004
523.87	8.107
524.21	8.198
524.55	8.294
524.89	8.366
525.23	8.430
525.57	8.491
525.91	8.540
526.25	8.588
526.58	8.624
526.92	8.657
527.26	8.678
527.60	8.687
527.94	8.701
528.28	8.695
528.62	8.696
528.96	8.687
529.30	8.694
529.64	8.679
529.97	8.673
530.31	8.670
530.65	8.672
530.99	8.657
531.33	8.663
531.67	8.665
532.01	8.676
532.35	8.665
532.68	8.668
533.02	8.644
533.36	8.653
533.70	8.648
534.04	8.648
534.38	8.626
534.71	8.639
535.05	8.611
535.39	8.597
535.73	8.581
536.07	8.583
536.41	8.611
536.74	8.630
537.08	8.643
537.42	8.668
537.76	8.681
538.10	8.709
538.43	8.718
538.77	8.741
539.11	8.764
539.45	8.796
539.79	8.820
540.12	8.807
540.46	8.813
540.80	8.803
541.14	8.782
541.47	8.768
541.81	8.744
542.15	8.718
542.49	8.691
542.82	8.669
543.16	8.618
543.50	8.578
543.84	8.550
544.17	8.504
544.51	8.481
544.85	8.465
545.18	8.457
545.52	8.431
545.86	8.415
546.20	8.395
546.53	8.371
546.87	8.341
547.21	8.320
547.54	8.316
547.88	8.318
548.22	8.304
548.55	8.293
548.89	8.263
549.23	8.264
549.56	8.257
549.90	8.251
550.24	8.244
550.57	8.258
550.91	8.285
551.25	8.267
551.58	8.274
551.92	8.276
552.26	8.294
552.59	8.314
552.93	8.314
553.27	8.319
553.60	8.343
553.94	8.347
554.27	8.348
554.61	8.330
554.95	8.359
555.28	8.351
555.62	8.357
555.95	8.347
556.29	8.352
556.63	8.383
556.96	8.369
557.30	8.360
557.63	8.359
557.97	8.381
558.31	8.394
558.64	8.367
558.98	8.392
559.31	8.389
559.65	8.390
559.98	8.378
560.32	8.370
560.65	8.407
560.99	8.432
561.33	8.416
561.66	8.431
562.00	8.437
562.33	8.474
562.67	8.487
563.00	8.513
563.34	8.540
563.67	8.562
564.01	8.573
564.34	8.589
564.68	8.620
565.01	8.664
565.35	8.683
565.68	8.697
566.02	8.718
566.35	8.722
566.69	8.731
567.02	8.745
567.36	8.778
567.69	8.800
568.03	8.810
568.36	8.793
568.69	8.804
569.03	8.808
569.36	8.813
569.70	8.801
570.03	8.828
570.37	8.867
570.70	8.883
571.04	8.882
571.37	8.898
571.70	8.921
572.04	8.933
572.37	8.950
572.71	8.963
573.04	8.981
573.37	9.004
573.71	9.000
574.04	8.980
574.38	8.978
574.71	8.972
575.04	8.975
575.38	8.961
575.71	8.966
576.05	8.954
576.38	8.949
576.71	8.946
577.05	8.957
577.38	8.965
577.71	8.988
578.05	9.006
578.38	9.054
578.71	9.061
579.05	9.070
579.38	9.086
579.71	9.100
580.05	9.103
580.38	9.095
580.71	9.097
581.05	9.102
581.38	9.107
581.71	9.116
582.05	9.126
582.38	9.122
582.71	9.141
583.04	9.150
583.38	9.182
583.71	9.219
584.04	9.276
584.38	9.286
584.71	9.323
585.04	9.343
585.37	9.358
585.71	9.355
586.04	9.393
586.37	9.419
586.70	9.451
587.04	9.448
587.37	9.482
587.70	9.512
588.03	9.565
588.37	9.611
588.70	9.635
589.03	9.664
589.36	9.702
589.69	9.721
590.03	9.720
590.36	9.758
590.69	9.814
591.02	9.827
591.35	9.841
591.69	9.845
592.02	9.856
592.35	9.868
592.68	9.898
593.01	9.925
593.35	9.949
593.68	9.985
594.01	10.028
594.34	10.034
594.67	10.053
595.00	10.094
595.34	10.117
595.67	10.124
596.00	10.152
596.33	10.162
596.66	10.148
596.99	10.189
597.32	10.242
597.65	10.227
597.99	10.268
598.32	10.275
598.65	10.289
598.98	10.297
599.31	10.312
599.64	10.356
599.97	10.389
600.30	10.426
600.63	10.442
600.96	10.466
601.30	10.492
601.63	10.502
601.96	10.542
602.29	10.565
602.62	10.586
602.95	10.609
603.28	10.613
603.61	10.639
603.94	10.658
604.27	10.686
604.60	10.680
604.93	10.683
605.26	10.696
605.59	10.723
605.92	10.722
606.25	10.765
606.58	10.765
606.91	10.767
607.24	10.776
607.57	10.803
607.90	10.800
608.23	10.779
608.56	10.794
608.89	10.795
609.22	10.775
609.55	10.801
609.88	10.757
610.21	10.763
610.54	10.765
610.87	10.752
611.20	10.733
611.53	10.717
611.86	10.733
612.19	10.746
612.52	10.751
612.85	10.765
613.18	10.752
613.51	10.775
613.84	10.773
614.17	10.765
614.49	10.760
614.82	10.749
615.15	10.761
615.48	10.790
615.81	10.810
616.14	10.829
616.47	10.829
616.80	10.804
617.13	10.839
617.46	10.849
617.78	10.839
618.11	10.832
618.44	10.872
618.77	10.871
619.10	10.871
619.43	10.837
619.76	10.842
620.09	10.837
620.41	10.828
620.74	10.829
621.07	10.851
621.40	10.882
621.73	10.897
622.06	10.848
622.38	10.842
622.71	10.836
623.04	10.872
623.37	10.851
623.70	10.877
624.02	10.919
624.35	10.893
624.68	10.855
625.01	10.841
625.34	10.810
625.66	10.795
625.99	10.793
626.32	10.756
626.65	10.739
626.98	10.746
627.30	10.716
627.63	10.668
627.96	10.681
628.29	10.697
628.61	10.714
628.94	10.740
629.27	10.749
629.60	10.772
629.92	10.785
630.25	10.791
630.58	10.753
630.91	10.734
631.23	10.760
631.56	10.732
631.89	10.701
632.21	10.670
632.54	10.651
632.87	10.664
633.19	10.636
633.52	10.647
633.85	10.604
634.18	10.608
634.50	10.621
634.83	10.597
635.16	10.626
635.48	10.630
635.81	10.618
636.14	10.606
636.46	10.617
636.79	10.607
637.11	10.612
637.44	10.646
637.77	10.630
638.09	10.632
638.42	10.631
638.75	10.563
639.07	10.566
639.40	10.549
639.73	10.585
640.05	10.555
640.38	10.561
640.70	10.534
641.03	10.484
641.36	10.531
641.68	10.560
642.01	10.552
642.33	10.558
642.66	10.535
642.98	10.546
643.31	10.553
643.64	10.516
643.96	10.487
644.29	10.475
644.61	10.527
644.94	10.481
645.26	10.445
645.59	10.430
645.91	10.446
646.24	10.462
646.56	10.491
646.89	10.462
647.22	10.502
647.54	10.495
647.87	10.534
648.19	10.520
648.52	10.512
648.84	10.526
649.17	10.533
649.49	10.538
649.82	10.524
650.14	10.479
650.47	10.435
650.79	10.420
651.11	10.425
651.44	10.388
651.76	10.380
652.09	10.361
652.41	10.303
652.74	10.311
653.06	10.324
653.39	10.298
