OOIBase32 Version 2.0.0.6 Data File
++++++++++++++++++++++++++++++++++++
Date: 01-20-2012, 22:04:56
User: Valued Ocean Optics Customer
Spectrometer Serial Number: USB2E2917
Spectrometer Channel: Master
Integration Time (msec): 4
Spectra Averaged: 10
Boxcar Smoothing: 5
Correct for Electrical Dark: Enabled
Time Normalized: Disabled
Dual-beam Reference: Disabled
Reference Channel: Master
Temperature: Not acquired
Spectrometer Type: S2000
ADC Type: USB2000
Number of Pixels in File: 2048
Graph Title: 
>>>>>Begin Spectral Data<<<<<
180.30	0.000
180.67	0.000
181.03	-35.932
181.40	188.675
181.77	42.892
182.14	24.533
182.51	62.928
182.88	-242.375
183.25	112.747
183.62	-74.530
183.99	-544.963
184.36	-30.313
184.73	34.131
185.10	-176.436
185.46	178.849
185.83	-246.136
186.20	102.727
186.57	141.896
186.94	-274.289
187.31	-12.766
187.68	-41.584
188.05	139.708
188.42	98.329
188.78	75.855
189.15	35.233
189.52	40.052
189.89	27.790
190.26	12.785
190.63	17.351
191.00	18.901
191.37	18.008
191.73	26.917
192.10	18.170
192.47	24.778
192.84	32.094
193.21	43.393
193.58	36.523
193.94	53.882
194.31	63.520
194.68	65.029
195.05	55.414
195.42	39.253
195.79	31.889
196.15	35.265
196.52	37.507
196.89	29.290
197.26	17.617
197.63	16.484
198.00	10.615
198.36	14.424
198.73	11.184
199.10	19.354
199.47	25.346
199.84	20.301
200.20	22.119
200.57	21.406
200.94	27.617
201.31	29.781
201.68	31.980
202.04	35.524
202.41	20.785
202.78	25.782
203.15	10.827
203.51	1.839
203.88	4.034
204.25	9.700
204.62	5.633
204.98	3.929
205.35	8.099
205.72	12.643
206.09	2.915
206.46	0.786
206.82	2.860
207.19	6.808
207.56	18.131
207.92	13.093
208.29	12.510
208.66	17.235
209.03	10.500
209.39	1.669
209.76	-11.181
210.13	-10.127
210.50	-2.945
210.86	5.508
211.23	8.123
211.60	5.157
211.96	17.617
212.33	7.761
212.70	-5.545
213.07	-2.211
213.43	12.811
213.80	18.270
214.17	20.394
214.53	22.247
214.90	10.316
215.27	8.885
215.63	7.072
216.00	3.302
216.37	3.868
216.74	3.907
217.10	10.118
217.47	0.676
217.84	-0.925
218.20	2.821
218.57	5.427
218.94	16.793
219.30	22.841
219.67	26.006
220.04	20.895
220.40	24.661
220.77	29.270
221.13	29.807
221.50	28.858
221.87	33.212
222.23	26.616
222.60	21.560
222.97	15.829
223.33	13.825
223.70	8.386
224.07	9.229
224.43	7.841
224.80	7.629
225.16	4.633
225.53	5.873
225.90	4.654
226.26	5.894
226.63	6.011
226.99	6.183
227.36	6.289
227.73	7.791
228.09	7.439
228.46	7.386
228.82	6.430
229.19	6.561
229.56	5.741
229.92	5.807
230.29	5.180
230.65	6.173
231.02	6.454
231.38	6.487
231.75	5.641
232.12	6.237
232.48	6.736
232.85	6.868
233.21	7.486
233.58	6.518
233.94	6.005
234.31	5.878
234.68	4.572
235.04	2.984
235.41	2.135
235.77	2.113
236.14	2.159
236.50	1.911
236.87	2.688
237.23	3.045
237.60	4.612
237.96	5.099
238.33	5.336
238.69	5.743
239.06	6.057
239.42	5.962
239.79	5.675
240.15	5.466
240.52	5.415
240.88	5.454
241.25	5.272
241.61	5.136
241.98	4.945
242.34	4.839
242.71	4.702
243.07	4.645
243.44	4.722
243.80	4.756
244.17	4.787
244.53	4.741
244.90	4.729
245.26	4.768
245.63	4.687
245.99	4.715
246.36	4.744
246.72	4.870
247.09	5.150
247.45	5.084
247.81	5.093
248.18	4.980
248.54	4.993
248.91	4.849
249.27	4.863
249.64	4.798
250.00	4.948
250.36	4.946
250.73	4.606
251.09	4.198
251.46	4.308
251.82	4.255
252.19	4.089
252.55	4.285
252.91	4.347
253.28	4.251
253.64	4.515
254.01	4.415
254.37	4.368
254.73	4.615
255.10	4.641
255.46	4.421
255.83	4.516
256.19	4.596
256.55	4.445
256.92	4.507
257.28	4.455
257.65	4.275
258.01	4.238
258.37	4.280
258.74	4.283
259.10	4.320
259.46	4.422
259.83	4.400
260.19	4.382
260.55	4.330
260.92	4.272
261.28	4.382
261.64	4.588
262.01	4.439
262.37	4.495
262.73	4.495
263.10	4.396
263.46	4.528
263.82	4.546
264.19	4.749
264.55	4.860
264.91	4.616
265.28	4.604
265.64	4.574
266.00	4.756
266.37	4.621
266.73	4.251
267.09	4.245
267.46	4.101
267.82	4.164
268.18	4.033
268.54	3.858
268.91	4.047
269.27	3.977
269.63	3.923
270.00	3.852
270.36	4.001
270.72	4.234
271.08	4.255
271.45	4.261
271.81	4.259
272.17	4.352
272.53	4.413
272.90	4.359
273.26	4.337
273.62	4.310
273.98	4.228
274.35	4.024
274.71	3.946
275.07	4.037
275.43	3.941
275.80	4.029
276.16	3.894
276.52	4.094
276.88	4.218
277.25	4.066
277.61	4.010
277.97	4.148
278.33	4.133
278.69	4.109
279.06	3.941
279.42	3.978
279.78	3.810
280.14	3.733
280.50	3.507
280.87	3.441
281.23	3.396
281.59	3.433
281.95	3.306
282.31	3.465
282.68	3.483
283.04	3.541
283.40	3.541
283.76	3.596
284.12	3.731
284.48	3.867
284.85	3.870
285.21	4.031
285.57	4.075
285.93	4.210
286.29	4.128
286.65	4.244
287.02	4.141
287.38	4.097
287.74	4.096
288.10	4.042
288.46	4.007
288.82	4.005
289.18	4.030
289.54	4.078
289.91	3.975
290.27	3.988
290.63	3.989
290.99	4.221
291.35	4.299
291.71	4.318
292.07	4.383
292.43	4.247
292.79	4.277
293.16	4.234
293.52	4.124
293.88	4.225
294.24	4.127
294.60	3.924
294.96	3.908
295.32	3.992
295.68	3.966
296.04	3.993
296.40	4.122
296.76	4.150
297.12	4.188
297.49	4.270
297.85	4.244
298.21	4.381
298.57	4.347
298.93	4.258
299.29	4.174
299.65	4.303
300.01	4.293
300.37	4.140
300.73	4.110
301.09	4.157
301.45	4.119
301.81	4.237
302.17	4.194
302.53	4.277
302.89	4.257
303.25	4.344
303.61	4.262
303.97	4.262
304.33	4.369
304.69	4.315
305.05	4.385
305.41	4.469
305.77	4.452
306.13	4.483
306.49	4.580
306.85	4.572
307.21	4.530
307.57	4.481
307.93	4.508
308.29	4.545
308.65	4.605
309.01	4.540
309.37	4.496
309.73	4.416
310.09	4.496
310.45	4.497
310.81	4.479
311.17	4.502
311.53	4.535
311.89	4.524
312.25	4.541
312.61	4.579
312.96	4.464
313.32	4.403
313.68	4.450
314.04	4.337
314.40	4.315
314.76	4.386
315.12	4.361
315.48	4.429
315.84	4.444
316.20	4.537
316.56	4.502
316.92	4.619
317.27	4.740
317.63	4.759
317.99	4.832
318.35	4.886
318.71	4.959
319.07	4.896
319.43	4.862
319.79	4.864
320.15	4.742
320.50	4.796
320.86	4.922
321.22	4.960
321.58	5.013
321.94	4.955
322.30	5.008
322.66	5.048
323.01	5.134
323.37	5.148
323.73	5.227
324.09	5.280
324.45	5.363
324.81	5.374
325.17	5.388
325.52	5.457
325.88	5.625
326.24	5.588
326.60	5.656
326.96	5.697
327.31	5.767
327.67	5.715
328.03	5.798
328.39	5.839
328.75	5.929
329.11	5.945
329.46	5.882
329.82	5.920
330.18	6.055
330.54	6.053
330.90	6.095
331.25	6.195
331.61	6.274
331.97	6.279
332.33	6.321
332.68	6.271
333.04	6.225
333.40	6.193
333.76	6.194
334.11	6.216
334.47	6.198
334.83	6.250
335.19	6.275
335.54	6.383
335.90	6.489
336.26	6.499
336.62	6.502
336.97	6.563
337.33	6.676
337.69	6.633
338.05	6.650
338.40	6.638
338.76	6.663
339.12	6.550
339.48	6.495
339.83	6.369
340.19	6.317
340.55	6.290
340.90	6.303
341.26	6.305
341.62	6.350
341.97	6.397
342.33	6.564
342.69	6.564
343.04	6.669
343.40	6.627
343.76	6.677
344.12	6.736
344.47	6.799
344.83	6.873
345.19	6.898
345.54	6.901
345.90	6.890
346.26	6.794
346.61	6.789
346.97	6.764
347.32	6.778
347.68	6.768
348.04	6.728
348.39	6.750
348.75	6.755
349.11	6.835
349.46	6.838
349.82	6.843
350.18	6.939
350.53	7.016
350.89	7.045
351.24	7.075
351.60	7.117
351.96	7.140
352.31	7.091
352.67	7.127
353.02	7.047
353.38	7.050
353.74	7.099
354.09	7.027
354.45	6.986
354.80	6.916
355.16	6.956
355.52	6.990
355.87	6.969
356.23	7.044
356.58	6.982
356.94	6.973
357.29	6.987
357.65	6.924
358.00	6.940
358.36	6.950
358.72	7.018
359.07	7.000
359.43	7.021
359.78	7.084
360.14	7.057
360.49	7.084
360.85	7.170
361.20	7.215
361.56	7.268
361.91	7.285
362.27	7.289
362.62	7.330
362.98	7.382
363.33	7.392
363.69	7.411
364.04	7.449
364.40	7.508
364.75	7.541
365.11	7.579
365.46	7.578
365.82	7.612
366.17	7.675
366.53	7.718
366.88	7.734
367.24	7.772
367.59	7.836
367.95	7.869
368.30	7.919
368.66	7.945
369.01	7.935
369.37	7.949
369.72	7.963
370.08	8.001
370.43	8.051
370.78	8.096
371.14	8.166
371.49	8.148
371.85	8.172
372.20	8.221
372.56	8.280
372.91	8.323
373.26	8.417
373.62	8.482
373.97	8.546
374.33	8.621
374.68	8.686
375.03	8.690
375.39	8.801
375.74	8.854
376.10	8.840
376.45	8.852
376.80	8.933
377.16	8.993
377.51	9.081
377.87	9.127
378.22	9.177
378.57	9.283
378.93	9.354
379.28	9.441
379.63	9.566
379.99	9.692
380.34	9.792
380.70	9.877
381.05	9.975
381.40	10.055
381.76	10.156
382.11	10.240
382.46	10.310
382.82	10.481
383.17	10.558
383.52	10.675
383.88	10.787
384.23	10.894
384.58	11.015
384.94	11.140
385.29	11.226
385.64	11.339
385.99	11.419
386.35	11.506
386.70	11.607
387.05	11.702
387.41	11.783
387.76	11.894
388.11	11.992
388.47	12.078
388.82	12.159
389.17	12.270
389.52	12.354
389.88	12.443
390.23	12.535
390.58	12.591
390.93	12.708
391.29	12.765
391.64	12.821
391.99	12.905
392.34	13.000
392.70	13.107
393.05	13.192
393.40	13.281
393.75	13.400
394.11	13.509
394.46	13.596
394.81	13.649
395.16	13.729
395.52	13.840
395.87	13.949
396.22	14.050
396.57	14.102
396.92	14.203
397.28	14.275
397.63	14.334
397.98	14.402
398.33	14.492
398.68	14.581
399.04	14.685
399.39	14.754
399.74	14.791
400.09	14.849
400.44	14.923
400.80	14.990
401.15	15.064
401.50	15.114
401.85	15.169
402.20	15.237
402.55	15.284
402.90	15.356
403.26	15.380
403.61	15.455
403.96	15.507
404.31	15.569
404.66	15.627
405.01	15.702
405.36	15.768
405.72	15.858
406.07	15.886
406.42	15.955
406.77	15.994
407.12	16.051
407.47	16.101
407.82	16.182
408.17	16.220
408.53	16.258
408.88	16.271
409.23	16.347
409.58	16.349
409.93	16.431
410.28	16.467
410.63	16.524
410.98	16.600
411.33	16.659
411.68	16.699
412.03	16.734
412.38	16.766
412.73	16.846
413.09	16.851
413.44	16.898
413.79	16.889
414.14	16.912
414.49	16.960
414.84	17.024
415.19	17.018
415.54	17.020
415.89	17.032
416.24	17.067
416.59	17.059
416.94	17.088
417.29	17.095
417.64	17.144
417.99	17.170
418.34	17.202
418.69	17.197
419.04	17.251
419.39	17.274
419.74	17.317
420.09	17.331
420.44	17.381
420.79	17.419
421.14	17.453
421.49	17.463
421.84	17.479
422.19	17.477
422.54	17.521
422.89	17.555
423.24	17.593
423.59	17.633
423.94	17.690
424.29	17.743
424.64	17.785
424.99	17.856
425.34	17.928
425.68	18.007
426.03	18.099
426.38	18.162
426.73	18.199
427.08	18.265
427.43	18.307
427.78	18.327
428.13	18.325
428.48	18.357
428.83	18.370
429.18	18.379
429.53	18.402
429.87	18.420
430.22	18.423
430.57	18.476
430.92	18.496
431.27	18.546
431.62	18.567
431.97	18.606
432.32	18.639
432.67	18.672
433.01	18.747
433.36	18.791
433.71	18.848
434.06	18.902
434.41	18.914
434.76	18.940
435.11	18.964
435.45	19.007
435.80	19.031
436.15	19.053
436.50	19.080
436.85	19.093
437.20	19.111
437.54	19.114
437.89	19.129
438.24	19.165
438.59	19.197
438.94	19.230
439.29	19.269
439.63	19.294
439.98	19.318
440.33	19.354
440.68	19.363
441.03	19.396
441.37	19.444
441.72	19.483
442.07	19.512
442.42	19.533
442.76	19.566
443.11	19.617
443.46	19.662
443.81	19.697
444.16	19.719
444.50	19.763
444.85	19.793
445.20	19.809
445.55	19.847
445.89	19.874
446.24	19.888
446.59	19.910
446.94	19.901
447.28	19.911
447.63	19.950
447.98	19.989
448.32	20.000
448.67	20.017
449.02	20.051
449.37	20.086
449.71	20.120
450.06	20.193
450.41	20.217
450.75	20.256
451.10	20.293
451.45	20.323
451.79	20.320
452.14	20.350
452.49	20.376
452.84	20.388
453.18	20.394
453.53	20.421
453.88	20.445
454.22	20.474
454.57	20.500
454.92	20.530
455.26	20.547
455.61	20.591
455.95	20.622
456.30	20.669
456.65	20.725
456.99	20.764
457.34	20.784
457.69	20.818
458.03	20.843
458.38	20.884
458.73	20.936
459.07	20.967
459.42	21.014
459.76	21.062
460.11	21.103
460.46	21.132
460.80	21.160
461.15	21.219
461.49	21.254
461.84	21.314
462.19	21.352
462.53	21.387
462.88	21.434
463.22	21.475
463.57	21.510
463.91	21.529
464.26	21.580
464.61	21.611
464.95	21.648
465.30	21.694
465.64	21.721
465.99	21.757
466.33	21.779
466.68	21.829
467.02	21.886
467.37	21.918
467.71	21.984
468.06	22.012
468.41	22.067
468.75	22.093
469.10	22.163
469.44	22.183
469.79	22.254
470.13	22.317
470.48	22.360
470.82	22.383
471.17	22.413
471.51	22.427
471.86	22.462
472.20	22.516
472.55	22.570
472.89	22.560
473.23	22.613
473.58	22.618
473.92	22.644
474.27	22.664
474.61	22.685
474.96	22.727
475.30	22.779
475.65	22.789
475.99	22.810
476.34	22.838
476.68	22.888
477.02	22.924
477.37	22.975
477.71	22.999
478.06	23.039
478.40	23.149
478.75	23.334
479.09	23.582
479.43	24.113
479.78	24.750
480.12	25.439
480.47	26.107
480.81	26.794
481.15	27.470
481.50	28.163
481.84	28.939
482.19	29.793
482.53	30.596
482.87	31.233
483.22	31.440
483.56	31.298
483.90	30.920
484.25	30.420
484.59	29.808
484.94	29.105
485.28	28.328
485.62	27.447
485.97	26.469
486.31	25.587
486.65	24.880
487.00	24.412
487.34	24.142
487.68	24.080
488.03	24.068
488.37	24.101
488.71	24.200
489.06	24.319
489.40	24.443
489.74	24.561
490.09	24.674
490.43	24.738
490.77	24.808
491.11	24.899
491.46	24.871
491.80	24.892
492.14	24.900
492.49	24.884
492.83	24.903
493.17	24.877
493.51	24.889
493.86	24.888
494.20	24.930
494.54	24.964
494.88	24.983
495.23	25.055
495.57	25.102
495.91	25.158
496.25	25.200
496.60	25.220
496.94	25.305
497.28	25.361
497.62	25.402
497.97	25.463
498.31	25.529
498.65	25.617
498.99	25.676
499.33	25.740
499.68	25.815
500.02	25.901
500.36	25.955
500.70	25.988
501.04	26.057
501.39	26.146
501.73	26.188
502.07	26.247
502.41	26.299
502.75	26.338
503.09	26.382
503.44	26.433
503.78	26.484
504.12	26.564
504.46	26.621
504.80	26.678
505.14	26.738
505.49	26.805
505.83	26.873
506.17	26.955
506.51	27.035
506.85	27.126
507.19	27.177
507.53	27.198
507.87	27.257
508.22	27.313
508.56	27.368
508.90	27.418
509.24	27.493
509.58	27.533
509.92	27.568
510.26	27.630
510.60	27.655
510.94	27.712
511.28	27.805
511.63	27.870
511.97	27.969
512.31	28.030
512.65	28.109
512.99	28.165
513.33	28.261
513.67	28.336
514.01	28.401
514.35	28.478
514.69	28.563
515.03	28.649
515.37	28.710
515.71	28.754
516.05	28.808
516.39	28.849
516.73	28.913
517.07	28.958
517.41	29.003
517.75	29.056
518.09	29.106
518.43	29.160
518.77	29.181
519.11	29.221
519.45	29.239
519.79	29.261
520.13	29.279
520.47	29.319
520.81	29.373
521.15	29.431
521.49	29.457
521.83	29.543
522.17	29.574
522.51	29.638
522.85	29.709
523.19	29.872
523.53	30.081
523.87	30.338
524.21	30.613
524.55	30.924
524.89	31.258
525.23	31.643
525.57	31.958
525.91	32.299
526.25	32.637
526.58	32.953
526.92	33.197
527.26	33.319
527.60	33.230
527.94	32.919
528.28	32.548
528.62	32.187
528.96	31.937
529.30	31.720
529.64	31.472
529.97	31.200
530.31	30.913
530.65	30.643
530.99	30.502
531.33	30.585
531.67	30.896
532.01	31.222
532.35	31.497
532.68	31.555
533.02	31.561
533.36	31.562
533.70	31.549
534.04	31.542
534.38	31.545
534.71	31.538
535.05	31.519
535.39	31.517
535.73	31.545
536.07	31.586
536.41	31.669
536.74	31.752
537.08	31.855
537.42	31.938
537.76	32.035
538.10	32.144
538.43	32.234
538.77	32.345
539.11	32.444
539.45	32.534
539.79	32.594
540.12	32.608
540.46	32.637
540.80	32.624
541.14	32.655
541.47	32.642
541.81	32.630
542.15	32.633
542.49	32.612
542.82	32.557
543.16	32.510
543.50	32.468
543.84	32.471
544.17	32.463
544.51	32.488
544.85	32.464
545.18	32.489
545.52	32.502
545.86	32.517
546.20	32.535
546.53	32.603
546.87	32.627
547.21	32.699
547.54	32.757
547.88	32.805
548.22	32.841
548.55	32.894
548.89	32.955
549.23	33.008
549.56	33.054
549.90	33.076
550.24	33.081
550.57	33.140
550.91	33.161
551.25	33.162
551.58	33.199
551.92	33.266
552.26	33.301
552.59	33.364
552.93	33.409
553.27	33.424
553.60	33.504
553.94	33.545
554.27	33.579
554.61	33.638
554.95	33.709
555.28	33.773
555.62	33.781
555.95	33.836
556.29	33.865
556.63	33.929
556.96	34.033
557.30	34.051
557.63	34.133
557.97	34.175
558.31	34.210
558.64	34.264
558.98	34.294
559.31	34.365
559.65	34.424
559.98	34.451
560.32	34.514
560.65	34.529
560.99	34.555
561.33	34.583
561.66	34.661
562.00	34.706
562.33	34.747
562.67	34.779
563.00	34.789
563.34	34.834
563.67	34.891
564.01	34.926
564.34	34.980
564.68	35.056
565.01	35.114
565.35	35.136
565.68	35.220
566.02	35.269
566.35	35.310
566.69	35.417
567.02	35.479
567.36	35.560
567.69	35.636
568.03	35.694
568.36	35.757
568.69	35.771
569.03	35.818
569.36	35.840
569.70	35.874
570.03	35.960
570.37	35.992
570.70	36.018
571.04	36.048
571.37	36.055
571.70	36.092
572.04	36.132
572.37	36.221
572.71	36.318
573.04	36.372
573.37	36.438
573.71	36.496
574.04	36.532
574.38	36.593
574.71	36.626
575.04	36.702
575.38	36.783
575.71	36.839
576.05	36.925
576.38	36.970
576.71	37.024
577.05	37.097
577.38	37.169
577.71	37.305
578.05	37.370
578.38	37.483
578.71	37.547
579.05	37.596
579.38	37.656
579.71	37.656
580.05	37.659
580.38	37.781
580.71	37.842
581.05	37.887
581.38	37.893
581.71	37.973
582.05	37.958
582.38	37.973
582.71	38.038
583.04	38.168
583.38	38.255
583.71	38.363
584.04	38.335
584.38	38.389
584.71	38.455
585.04	38.494
585.37	38.571
585.71	38.705
586.04	38.823
586.37	38.884
586.70	38.905
587.04	38.928
587.37	38.961
587.70	39.048
588.03	39.117
588.37	39.159
588.70	39.236
589.03	39.280
589.36	39.312
589.69	39.370
590.03	39.430
590.36	39.449
590.69	39.562
591.02	39.636
591.35	39.720
591.69	39.806
592.02	39.898
592.35	39.898
592.68	39.946
593.01	39.989
593.35	39.979
593.68	39.984
594.01	40.020
594.34	40.047
594.67	40.058
595.00	40.063
595.34	40.065
595.67	40.042
596.00	40.131
596.33	40.175
596.66	40.251
596.99	40.345
597.32	40.439
597.65	40.557
597.99	40.606
598.32	40.711
598.65	40.799
598.98	40.879
599.31	40.952
599.64	41.029
599.97	41.075
600.30	41.092
600.63	41.137
600.96	41.147
601.30	41.134
601.63	41.176
601.96	41.202
602.29	41.264
602.62	41.319
602.95	41.421
603.28	41.461
603.61	41.540
603.94	41.613
604.27	41.653
604.60	41.725
604.93	41.807
605.26	41.861
605.59	41.896
605.92	41.928
606.25	41.966
606.58	41.957
606.91	42.006
607.24	42.036
607.57	42.065
607.90	42.100
608.23	42.163
608.56	42.203
608.89	42.301
609.22	42.383
609.55	42.468
609.88	42.520
610.21	42.597
610.54	42.666
610.87	42.741
611.20	42.832
611.53	42.937
611.86	42.924
612.19	42.979
612.52	42.968
612.85	42.997
613.18	42.974
613.51	42.990
613.84	43.010
614.17	43.032
614.49	43.041
614.82	43.048
615.15	43.057
615.48	43.158
615.81	43.192
616.14	43.257
616.47	43.314
616.80	43.407
617.13	43.433
617.46	43.483
617.78	43.503
618.11	43.545
618.44	43.602
618.77	43.638
619.10	43.651
619.43	43.704
619.76	43.759
620.09	43.831
620.41	43.807
620.74	43.844
621.07	43.862
621.40	43.886
621.73	43.911
622.06	43.966
622.38	43.988
622.71	44.046
623.04	44.001
623.37	43.974
623.70	43.951
624.02	43.971
624.35	44.054
624.68	44.137
625.01	44.212
625.34	44.225
625.66	44.197
625.99	44.174
626.32	44.167
626.65	44.223
626.98	44.270
627.30	44.314
627.63	44.352
627.96	44.390
628.29	44.348
628.61	44.314
628.94	44.340
629.27	44.352
629.60	44.464
629.92	44.545
630.25	44.584
630.58	44.622
630.91	44.651
631.23	44.693
631.56	44.712
631.89	44.780
632.21	44.829
632.54	44.870
632.87	44.972
633.19	44.986
633.52	45.047
633.85	45.066
634.18	45.105
634.50	45.046
634.83	45.132
635.16	45.129
635.48	45.124
635.81	45.149
636.14	45.158
636.46	45.207
636.79	45.272
637.11	45.229
637.44	45.305
637.77	45.320
638.09	45.450
638.42	45.452
638.75	45.452
639.07	45.523
639.40	45.549
639.73	45.590
640.05	45.584
640.38	45.576
640.70	45.552
641.03	45.533
641.36	45.590
641.68	45.572
642.01	45.552
642.33	45.558
642.66	45.583
