OOIBase32 Version 2.0.0.6 Data File
++++++++++++++++++++++++++++++++++++
Date: 01-20-2012, 22:07:27
User: Valued Ocean Optics Customer
Spectrometer Serial Number: USB2E2917
Spectrometer Channel: Master
Integration Time (msec): 4
Spectra Averaged: 10
Boxcar Smoothing: 5
Correct for Electrical Dark: Enabled
Time Normalized: Disabled
Dual-beam Reference: Disabled
Reference Channel: Master
Temperature: Not acquired
Spectrometer Type: S2000
ADC Type: USB2000
Number of Pixels in File: 2048
Graph Title: 
>>>>>Begin Spectral Data<<<<<
180.30	0.000
180.67	0.000
181.03	-0.890
181.40	-14.754
181.77	410.828
182.14	-13680.533
182.51	85.233
182.88	-283.311
183.25	90.707
183.62	76.069
183.99	-132.548
184.36	8.329
184.73	-35.124
185.10	-216.195
185.46	-116.182
185.83	-20.414
186.20	425.389
186.57	129.963
186.94	91.374
187.31	186.687
187.68	78.604
188.05	27.867
188.42	30.976
188.78	34.237
189.15	21.365
189.52	33.255
189.89	28.476
190.26	23.169
190.63	20.977
191.00	17.462
191.37	8.698
191.73	10.848
192.10	4.517
192.47	7.294
192.84	3.768
193.21	19.387
193.58	16.693
193.94	19.252
194.31	23.386
194.68	20.410
195.05	13.822
195.42	22.780
195.79	33.288
196.15	43.286
196.52	40.305
196.89	36.221
197.26	25.900
197.63	25.430
198.00	22.757
198.36	17.205
198.73	17.871
199.10	27.510
199.47	25.024
199.84	13.987
200.20	14.570
200.57	12.773
200.94	10.683
201.31	7.717
201.68	7.486
202.04	14.205
202.41	11.219
202.78	17.390
203.15	4.601
203.51	8.390
203.88	15.496
204.25	10.317
204.62	8.988
204.98	17.373
205.35	28.452
205.72	28.175
206.09	19.988
206.46	25.542
206.82	18.232
207.19	19.931
207.56	21.646
207.92	9.566
208.29	15.197
208.66	14.733
209.03	6.505
209.39	-3.385
209.76	-12.109
210.13	-10.349
210.50	-8.377
210.86	-2.451
211.23	-0.188
211.60	-10.365
211.96	2.422
212.33	1.878
212.70	-1.285
213.07	2.263
213.43	8.005
213.80	15.813
214.17	21.704
214.53	17.356
214.90	8.583
215.27	14.394
215.63	17.598
216.00	17.015
216.37	10.504
216.74	8.074
217.10	9.033
217.47	3.885
217.84	-1.653
218.20	-4.232
218.57	-2.597
218.94	3.772
219.30	-0.427
219.67	5.302
220.04	2.580
220.40	0.347
220.77	5.585
221.13	8.935
221.50	9.702
221.87	12.480
222.23	10.855
222.60	10.684
222.97	11.402
223.33	13.488
223.70	10.202
224.07	11.911
224.43	12.628
224.80	12.614
225.16	10.484
225.53	11.044
225.90	10.341
226.26	10.231
226.63	9.772
226.99	9.373
227.36	8.499
227.73	8.821
228.09	8.524
228.46	8.310
228.82	7.490
229.19	6.980
229.56	5.882
229.92	6.112
230.29	6.229
230.65	7.282
231.02	7.393
231.38	7.179
231.75	6.732
232.12	6.260
232.48	6.466
232.85	6.574
233.21	8.076
233.58	7.606
233.94	6.900
234.31	6.559
234.68	5.701
235.04	5.057
235.41	4.716
235.77	4.754
236.14	4.783
236.50	5.040
236.87	5.574
237.23	5.385
237.60	6.654
237.96	6.917
238.33	7.028
238.69	6.632
239.06	6.376
239.42	6.640
239.79	6.496
240.15	6.555
240.52	6.588
240.88	6.534
241.25	6.489
241.61	6.225
241.98	6.153
242.34	5.853
242.71	5.914
243.07	5.943
243.44	5.707
243.80	5.791
244.17	5.838
244.53	5.802
244.90	5.756
245.26	5.826
245.63	5.893
245.99	5.839
246.36	5.913
246.72	5.922
247.09	5.977
247.45	6.248
247.81	6.003
248.18	5.913
248.54	5.720
248.91	5.677
249.27	5.802
249.64	5.470
250.00	5.267
250.36	5.444
250.73	5.205
251.09	5.050
251.46	4.798
251.82	4.923
252.19	4.669
252.55	4.961
252.91	5.155
253.28	4.539
253.64	4.907
254.01	5.524
254.37	5.373
254.73	5.636
255.10	5.623
255.46	5.316
255.83	5.408
256.19	5.458
256.55	5.331
256.92	5.314
257.28	5.346
257.65	5.309
258.01	5.119
258.37	5.115
258.74	5.202
259.10	5.322
259.46	5.378
259.83	5.381
260.19	5.370
260.55	5.289
260.92	5.149
261.28	5.270
261.64	5.299
262.01	5.301
262.37	5.194
262.73	5.077
263.10	4.820
263.46	4.932
263.82	4.875
264.19	4.967
264.55	5.110
264.91	5.001
265.28	4.862
265.64	4.728
266.00	4.865
266.37	5.124
266.73	4.890
267.09	5.094
267.46	5.092
267.82	5.210
268.18	5.076
268.54	4.934
268.91	5.022
269.27	4.930
269.63	4.929
270.00	4.870
270.36	4.758
270.72	4.766
271.08	4.604
271.45	4.743
271.81	4.462
272.17	4.487
272.53	4.487
272.90	4.340
273.26	4.368
273.62	4.514
273.98	4.370
274.35	4.246
274.71	4.241
275.07	4.375
275.43	4.052
275.80	4.383
276.16	4.296
276.52	4.466
276.88	4.619
277.25	4.558
277.61	4.401
277.97	4.528
278.33	4.431
278.69	4.561
279.06	4.443
279.42	4.495
279.78	4.240
280.14	4.292
280.50	4.201
280.87	4.181
281.23	4.223
281.59	4.232
281.95	4.067
282.31	4.203
282.68	4.205
283.04	4.179
283.40	4.219
283.76	4.412
284.12	4.446
284.48	4.528
284.85	4.419
285.21	4.497
285.57	4.610
285.93	4.733
286.29	4.738
286.65	4.811
287.02	4.832
287.38	4.691
287.74	4.617
288.10	4.659
288.46	4.565
288.82	4.778
289.18	4.738
289.54	4.552
289.91	4.528
290.27	4.491
290.63	4.382
290.99	4.544
291.35	4.725
291.71	4.689
292.07	4.734
292.43	4.742
292.79	4.777
293.16	4.832
293.52	5.064
293.88	5.259
294.24	5.332
294.60	5.305
294.96	5.426
295.32	5.555
295.68	5.703
296.04	5.818
296.40	6.007
296.76	6.196
297.12	6.367
297.49	6.523
297.85	6.586
298.21	6.795
298.57	7.080
298.93	7.149
299.29	7.369
299.65	7.738
300.01	8.040
300.37	8.217
300.73	8.336
301.09	8.595
301.45	8.780
301.81	9.347
302.17	9.636
302.53	9.909
302.89	10.167
303.25	10.429
303.61	10.653
303.97	10.902
304.33	11.369
304.69	11.854
305.05	12.237
305.41	12.605
305.77	12.688
306.13	13.044
306.49	13.589
306.85	14.067
307.21	14.359
307.57	14.678
307.93	15.068
308.29	15.215
308.65	15.360
309.01	15.486
309.37	15.719
309.73	15.881
310.09	16.147
310.45	16.266
310.81	16.409
311.17	16.739
311.53	16.934
311.89	16.971
312.25	17.213
312.61	17.375
312.96	17.597
313.32	17.715
313.68	17.930
314.04	18.047
314.40	18.149
314.76	18.184
315.12	18.109
315.48	18.218
315.84	18.378
316.20	18.494
316.56	18.479
316.92	18.549
317.27	18.597
317.63	18.735
317.99	18.751
318.35	18.871
318.71	18.920
319.07	18.986
319.43	19.000
319.79	18.985
320.15	18.816
320.50	18.938
320.86	18.987
321.22	19.009
321.58	18.924
321.94	18.831
322.30	18.697
322.66	18.796
323.01	18.693
323.37	18.617
323.73	18.575
324.09	18.624
324.45	18.532
324.81	18.475
325.17	18.383
325.52	18.258
325.88	18.243
326.24	18.105
326.60	17.967
326.96	17.929
327.31	17.817
327.67	17.801
328.03	17.824
328.39	17.760
328.75	17.716
329.11	17.694
329.46	17.741
329.82	17.738
330.18	17.841
330.54	17.792
330.90	17.752
331.25	17.768
331.61	17.705
331.97	17.626
332.33	17.606
332.68	17.523
333.04	17.474
333.40	17.377
333.76	17.293
334.11	17.239
334.47	17.148
334.83	17.183
335.19	17.189
335.54	17.164
335.90	17.131
336.26	17.166
336.62	17.067
336.97	17.112
337.33	17.091
337.69	17.046
338.05	17.078
338.40	17.102
338.76	17.045
339.12	16.947
339.48	16.882
339.83	16.749
340.19	16.665
340.55	16.698
340.90	16.551
341.26	16.491
341.62	16.397
341.97	16.294
342.33	16.298
342.69	16.203
343.04	16.127
343.40	16.025
343.76	16.028
344.12	15.930
344.47	15.875
344.83	15.829
345.19	15.798
345.54	15.832
345.90	15.769
346.26	15.688
346.61	15.660
346.97	15.622
347.32	15.616
347.68	15.560
348.04	15.555
348.39	15.442
348.75	15.427
349.11	15.463
349.46	15.368
349.82	15.325
350.18	15.262
350.53	15.285
350.89	15.300
351.24	15.205
351.60	15.144
351.96	15.111
352.31	15.117
352.67	15.092
353.02	14.933
353.38	14.890
353.74	14.834
354.09	14.706
354.45	14.554
354.80	14.413
355.16	14.356
355.52	14.333
355.87	14.233
356.23	14.150
356.58	14.019
356.94	13.984
357.29	13.926
357.65	13.868
358.00	13.865
358.36	13.810
358.72	13.769
359.07	13.763
359.43	13.736
359.78	13.696
360.14	13.614
360.49	13.597
360.85	13.581
361.20	13.525
361.56	13.476
361.91	13.442
362.27	13.337
362.62	13.301
362.98	13.225
363.33	13.132
363.69	13.070
364.04	13.077
364.40	13.055
364.75	12.982
365.11	12.900
365.46	12.835
365.82	12.759
366.17	12.770
366.53	12.729
366.88	12.692
367.24	12.697
367.59	12.722
367.95	12.681
368.30	12.649
368.66	12.597
369.01	12.590
369.37	12.537
369.72	12.501
370.08	12.485
370.43	12.444
370.78	12.377
371.14	12.285
371.49	12.165
371.85	12.108
372.20	12.038
372.56	11.983
372.91	11.918
373.26	11.868
373.62	11.803
373.97	11.761
374.33	11.763
374.68	11.724
375.03	11.666
375.39	11.629
375.74	11.558
376.10	11.452
376.45	11.436
376.80	11.404
377.16	11.356
377.51	11.356
377.87	11.313
378.22	11.221
378.57	11.192
378.93	11.185
379.28	11.171
379.63	11.170
379.99	11.181
380.34	11.132
380.70	11.079
381.05	11.014
381.40	10.932
381.76	10.837
382.11	10.796
382.46	10.750
382.82	10.717
383.17	10.623
383.52	10.564
383.88	10.514
384.23	10.489
384.58	10.472
384.94	10.469
385.29	10.416
385.64	10.417
385.99	10.358
386.35	10.304
386.70	10.237
387.05	10.235
387.41	10.154
387.76	10.077
388.11	10.008
388.47	9.912
388.82	9.863
389.17	9.838
389.52	9.799
389.88	9.750
390.23	9.721
390.58	9.664
390.93	9.652
391.29	9.591
391.64	9.553
391.99	9.537
392.34	9.512
392.70	9.448
393.05	9.408
393.40	9.353
393.75	9.338
394.11	9.271
394.46	9.228
394.81	9.123
395.16	9.102
395.52	9.089
395.87	9.023
396.22	8.978
396.57	8.955
396.92	8.908
397.28	8.867
397.63	8.803
397.98	8.767
398.33	8.705
398.68	8.672
399.04	8.609
399.39	8.541
399.74	8.479
400.09	8.437
400.44	8.377
400.80	8.330
401.15	8.273
401.50	8.213
401.85	8.174
402.20	8.149
402.55	8.100
402.90	8.091
403.26	8.034
403.61	7.989
403.96	7.951
404.31	7.933
404.66	7.892
405.01	7.863
405.36	7.839
405.72	7.819
406.07	7.767
406.42	7.722
406.77	7.668
407.12	7.632
407.47	7.622
407.82	7.589
408.17	7.527
408.53	7.475
408.88	7.422
409.23	7.384
409.58	7.331
409.93	7.304
410.28	7.289
410.63	7.288
410.98	7.292
411.33	7.270
411.68	7.260
412.03	7.231
412.38	7.203
412.73	7.192
413.09	7.153
413.44	7.099
413.79	7.024
414.14	7.009
414.49	6.977
414.84	6.935
415.19	6.870
415.54	6.821
415.89	6.791
416.24	6.754
416.59	6.708
416.94	6.682
417.29	6.672
417.64	6.671
417.99	6.634
418.34	6.612
418.69	6.580
419.04	6.573
419.39	6.557
419.74	6.540
420.09	6.528
420.44	6.519
420.79	6.502
421.14	6.473
421.49	6.451
421.84	6.428
422.19	6.395
422.54	6.393
422.89	6.368
423.24	6.344
423.59	6.340
423.94	6.327
424.29	6.323
424.64	6.310
424.99	6.306
425.34	6.298
425.68	6.300
426.03	6.289
426.38	6.281
426.73	6.286
427.08	6.303
427.43	6.277
427.78	6.258
428.13	6.241
428.48	6.252
428.83	6.272
429.18	6.266
429.53	6.261
429.87	6.275
430.22	6.286
430.57	6.282
430.92	6.273
431.27	6.275
431.62	6.301
431.97	6.319
432.32	6.313
432.67	6.295
433.01	6.324
433.36	6.345
433.71	6.355
434.06	6.353
434.41	6.365
434.76	6.359
435.11	6.380
435.45	6.374
435.80	6.372
436.15	6.381
436.50	6.403
436.85	6.380
437.20	6.371
437.54	6.361
437.89	6.354
438.24	6.346
438.59	6.354
438.94	6.352
439.29	6.366
439.63	6.357
439.98	6.356
440.33	6.352
440.68	6.362
441.03	6.354
441.37	6.377
441.72	6.379
442.07	6.404
442.42	6.403
442.76	6.412
443.11	6.415
443.46	6.420
443.81	6.416
444.16	6.412
444.50	6.419
444.85	6.414
445.20	6.410
445.55	6.409
445.89	6.394
446.24	6.394
446.59	6.378
446.94	6.366
447.28	6.359
447.63	6.350
447.98	6.349
448.32	6.331
448.67	6.326
449.02	6.311
449.37	6.309
449.71	6.283
450.06	6.283
450.41	6.284
450.75	6.298
451.10	6.301
451.45	6.302
451.79	6.284
452.14	6.294
452.49	6.300
452.84	6.294
453.18	6.285
453.53	6.306
453.88	6.283
454.22	6.289
454.57	6.274
454.92	6.272
455.26	6.310
455.61	6.323
455.95	6.312
456.30	6.328
456.65	6.348
456.99	6.352
457.34	6.344
457.69	6.360
458.03	6.365
458.38	6.370
458.73	6.373
459.07	6.356
459.42	6.364
459.76	6.393
460.11	6.404
460.46	6.409
460.80	6.423
461.15	6.468
461.49	6.490
461.84	6.505
462.19	6.521
462.53	6.541
462.88	6.566
463.22	6.599
463.57	6.603
463.91	6.610
464.26	6.621
464.61	6.636
464.95	6.629
465.30	6.635
465.64	6.663
465.99	6.686
466.33	6.717
466.68	6.735
467.02	6.759
467.37	6.776
467.71	6.808
468.06	6.821
468.41	6.839
468.75	6.850
469.10	6.867
469.44	6.849
469.79	6.846
470.13	6.858
470.48	6.853
470.82	6.819
471.17	6.787
471.51	6.763
471.86	6.761
472.20	6.749
472.55	6.751
472.89	6.747
473.23	6.746
473.58	6.730
473.92	6.700
474.27	6.675
474.61	6.662
474.96	6.657
475.30	6.652
475.65	6.630
475.99	6.611
476.34	6.603
476.68	6.587
477.02	6.566
477.37	6.553
477.71	6.545
478.06	6.547
478.40	6.538
478.75	6.556
479.09	6.582
479.43	6.687
479.78	6.845
480.12	6.995
480.47	7.154
480.81	7.319
481.15	7.482
481.50	7.648
481.84	7.842
482.19	8.058
482.53	8.258
482.87	8.413
483.22	8.453
483.56	8.397
483.90	8.281
484.25	8.134
484.59	7.961
484.94	7.769
485.28	7.551
485.62	7.296
485.97	7.027
486.31	6.783
486.65	6.594
487.00	6.465
487.34	6.391
487.68	6.379
488.03	6.379
488.37	6.389
488.71	6.424
489.06	6.460
489.40	6.509
489.74	6.555
490.09	6.598
490.43	6.625
490.77	6.670
491.11	6.698
491.46	6.701
491.80	6.716
492.14	6.730
492.49	6.732
492.83	6.754
493.17	6.763
493.51	6.790
493.86	6.823
494.20	6.859
494.54	6.893
494.88	6.946
495.23	6.986
495.57	7.023
495.91	7.074
496.25	7.103
496.60	7.134
496.94	7.181
497.28	7.226
497.62	7.258
497.97	7.302
498.31	7.336
498.65	7.388
498.99	7.456
499.33	7.521
499.68	7.596
500.02	7.693
500.36	7.752
500.70	7.818
501.04	7.882
501.39	7.947
501.73	8.018
502.07	8.085
502.41	8.136
502.75	8.203
503.09	8.271
503.44	8.319
503.78	8.384
504.12	8.480
504.46	8.544
504.80	8.608
505.14	8.694
505.49	8.764
505.83	8.838
506.17	8.905
506.51	8.975
506.85	9.050
507.19	9.118
507.53	9.161
507.87	9.222
508.22	9.282
508.56	9.348
508.90	9.416
509.24	9.474
509.58	9.545
509.92	9.614
510.26	9.680
510.60	9.725
510.94	9.782
511.28	9.843
511.63	9.877
511.97	9.951
512.31	10.020
512.65	10.053
512.99	10.112
513.33	10.163
513.67	10.216
514.01	10.257
514.35	10.312
514.69	10.352
515.03	10.411
515.37	10.474
515.71	10.504
516.05	10.525
516.39	10.556
516.73	10.586
517.07	10.608
517.41	10.631
517.75	10.657
518.09	10.696
518.43	10.751
518.77	10.768
519.11	10.795
519.45	10.813
519.79	10.843
520.13	10.866
520.47	10.889
520.81	10.934
521.15	10.978
521.49	10.999
521.83	10.996
522.17	11.000
522.51	10.995
522.85	10.991
523.19	11.019
523.53	11.048
523.87	11.098
524.21	11.154
524.55	11.215
524.89	11.288
525.23	11.388
525.57	11.474
525.91	11.554
526.25	11.645
526.58	11.728
526.92	11.799
527.26	11.834
527.60	11.788
527.94	11.667
528.28	11.520
528.62	11.380
528.96	11.271
529.30	11.193
529.64	11.098
529.97	11.009
530.31	10.900
530.65	10.799
530.99	10.719
531.33	10.731
531.67	10.826
532.01	10.933
532.35	11.022
532.68	11.042
533.02	11.035
533.36	11.021
533.70	10.998
534.04	10.991
534.38	10.968
534.71	10.956
535.05	10.950
535.39	10.942
535.73	10.926
536.07	10.916
536.41	10.917
536.74	10.896
537.08	10.889
537.42	10.887
537.76	10.871
538.10	10.860
538.43	10.855
538.77	10.838
539.11	10.828
539.45	10.831
539.79	10.822
540.12	10.805
540.46	10.802
540.80	10.785
541.14	10.765
541.47	10.743
541.81	10.730
542.15	10.720
542.49	10.705
542.82	10.686
543.16	10.665
543.50	10.634
543.84	10.605
544.17	10.585
544.51	10.595
544.85	10.575
545.18	10.584
545.52	10.579
545.86	10.570
546.20	10.575
546.53	10.576
546.87	10.565
547.21	10.586
547.54	10.603
547.88	10.620
548.22	10.617
548.55	10.638
548.89	10.620
549.23	10.623
549.56	10.613
549.90	10.619
550.24	10.606
550.57	10.612
550.91	10.598
551.25	10.581
551.58	10.561
551.92	10.547
552.26	10.559
552.59	10.568
552.93	10.578
553.27	10.579
553.60	10.576
553.94	10.571
554.27	10.570
554.61	10.551
554.95	10.562
555.28	10.549
555.62	10.547
555.95	10.511
556.29	10.522
556.63	10.547
556.96	10.571
557.30	10.566
557.63	10.572
557.97	10.566
558.31	10.594
558.64	10.614
558.98	10.645
559.31	10.640
559.65	10.664
559.98	10.663
560.32	10.636
560.65	10.622
560.99	10.624
561.33	10.615
561.66	10.623
562.00	10.625
562.33	10.624
562.67	10.609
563.00	10.606
563.34	10.606
563.67	10.592
564.01	10.583
564.34	10.598
564.68	10.577
565.01	10.583
565.35	10.574
565.68	10.569
566.02	10.577
566.35	10.584
566.69	10.605
567.02	10.598
567.36	10.614
567.69	10.640
568.03	10.637
568.36	10.667
568.69	10.689
569.03	10.707
569.36	10.714
569.70	10.717
570.03	10.715
570.37	10.717
570.70	10.718
571.04	10.731
571.37	10.715
571.70	10.735
572.04	10.738
572.37	10.734
572.71	10.756
573.04	10.773
573.37	10.763
573.71	10.785
574.04	10.828
574.38	10.861
574.71	10.877
575.04	10.912
575.38	10.922
575.71	10.938
576.05	10.992
576.38	11.021
576.71	11.050
577.05	11.119
577.38	11.163
577.71	11.192
578.05	11.225
578.38	11.254
578.71	11.279
579.05	11.310
579.38	11.342
579.71	11.342
580.05	11.344
580.38	11.368
580.71	11.358
581.05	11.367
581.38	11.342
581.71	11.376
582.05	11.373
582.38	11.388
582.71	11.441
583.04	11.470
583.38	11.478
583.71	11.470
584.04	11.480
584.38	11.493
584.71	11.494
585.04	11.515
585.37	11.514
585.71	11.539
586.04	11.554
586.37	11.498
586.70	11.505
587.04	11.513
587.37	11.518
587.70	11.524
588.03	11.531
588.37	11.556
588.70	11.571
589.03	11.564
589.36	11.561
589.69	11.566
590.03	11.617
590.36	11.653
590.69	11.689
591.02	11.762
591.35	11.790
591.69	11.826
592.02	11.849
592.35	11.882
592.68	11.907
593.01	11.956
593.35	11.969
593.68	12.005
594.01	11.998
594.34	12.016
594.67	12.025
595.00	12.052
595.34	12.062
595.67	12.078
596.00	12.110
596.33	12.176
596.66	12.233
596.99	12.323
597.32	12.393
597.65	12.472
597.99	12.528
598.32	12.596
598.65	12.653
598.98	12.711
599.31	12.788
599.64	12.815
599.97	12.839
600.30	12.828
600.63	12.800
600.96	12.769
601.30	12.761
601.63	12.748
601.96	12.758
602.29	12.779
602.62	12.798
602.95	12.810
603.28	12.841
603.61	12.868
603.94	12.920
604.27	12.973
604.60	13.007
604.93	13.060
605.26	13.113
605.59	13.166
605.92	13.194
606.25	13.243
606.58	13.270
606.91	13.270
607.24	13.280
607.57	13.310
607.90	13.349
608.23	13.376
608.56	13.386
608.89	13.443
609.22	13.462
609.55	13.507
609.88	13.550
610.21	13.597
610.54	13.685
610.87	13.773
611.20	13.826
611.53	13.882
611.86	13.935
612.19	14.008
612.52	14.073
612.85	14.121
613.18	14.173
613.51	14.221
613.84	14.267
614.17	14.294
614.49	14.297
614.82	14.310
615.15	14.334
615.48	14.416
615.81	14.437
616.14	14.426
616.47	14.438
616.80	14.417
617.13	14.416
617.46	14.404
617.78	14.420
618.11	14.430
618.44	14.441
618.77	14.456
619.10	14.424
619.43	14.458
619.76	14.462
620.09	14.486
620.41	14.522
620.74	14.539
621.07	14.545
621.40	14.498
621.73	14.489
622.06	14.469
622.38	14.442
622.71	14.426
623.04	14.349
623.37	14.322
623.70	14.273
624.02	14.220
624.35	14.198
624.68	14.180
625.01	14.152
625.34	14.120
625.66	14.091
625.99	14.062
626.32	14.029
626.65	14.065
626.98	14.068
627.30	14.070
627.63	14.082
627.96	14.090
628.29	14.110
628.61	14.162
628.94	14.193
629.27	14.236
629.60	14.275
629.92	14.335
630.25	14.294
630.58	14.282
630.91	14.290
631.23	14.345
631.56	14.328
631.89	14.336
632.21	14.308
632.54	14.356
632.87	14.381
633.19	14.383
633.52	14.401
633.85	14.456
634.18	14.471
634.50	14.504
634.83	14.486
635.16	14.527
635.48	14.552
635.81	14.642
636.14	14.649
636.46	14.666
636.79	14.701
637.11	14.713
637.44	14.741
637.77	14.805
638.09	14.856
638.42	14.918
638.75	14.946
639.07	14.975
639.40	14.977
639.73	15.002
640.05	15.026
640.38	15.072
640.70	15.051
641.03	15.043
641.36	15.061
641.68	15.021
642.01	14.993
642.33	14.959
642.66	14.916
642.98	14.880
643.31	14.827
643.64	14.812
643.96	14.742
644.29	14.755
644.61	14.741
644.94	14.719
645.26	14.688
645.59	14.627
