OOIBase32 Version 2.0.0.6 Data File
++++++++++++++++++++++++++++++++++++
Date: 01-22-2012, 21:23:46
User: Valued Ocean Optics Customer
Spectrometer Serial Number: USB2E2917
Spectrometer Channel: Master
Integration Time (msec): 4
Spectra Averaged: 10
Boxcar Smoothing: 5
Correct for Electrical Dark: Enabled
Time Normalized: Disabled
Dual-beam Reference: Disabled
Reference Channel: Master
Temperature: Not acquired
Spectrometer Type: S2000
ADC Type: USB2000
Number of Pixels in File: 2048
Graph Title: 
>>>>>Begin Spectral Data<<<<<
180.30	0.000
180.67	0.000
181.03	-237.206
181.40	84.154
181.77	3.526
182.14	30.229
182.51	794.708
182.88	-29.285
183.25	38.158
183.62	-34.675
183.99	36.619
184.36	-110.023
184.73	51.784
185.10	2877.233
185.46	-102.989
185.83	66.432
186.20	30.801
186.57	96.031
186.94	78.732
187.31	34.427
187.68	-2419.496
188.05	-294.701
188.42	-152.400
188.78	176.249
189.15	97.373
189.52	82.734
189.89	57.604
190.26	55.263
190.63	68.000
191.00	65.312
191.37	61.376
191.73	89.098
192.10	19.958
192.47	-4.297
192.84	-98.261
193.21	-77.756
193.58	-10.548
193.94	-124.497
194.31	-40.439
194.68	-43.655
195.05	-71.472
195.42	-94.682
195.79	-96.324
196.15	-45.657
196.52	-27.022
196.89	-33.801
197.26	-64.126
197.63	-77.928
198.00	-70.863
198.36	-155.872
198.73	-199.229
199.10	-97.198
199.47	-21.320
199.84	-12.150
200.20	-49.324
200.57	-27.908
200.94	8.477
201.31	27.215
201.68	9.485
202.04	20.121
202.41	13.122
202.78	16.149
203.15	17.803
203.51	8.668
203.88	9.354
204.25	3.349
204.62	-2.292
204.98	-12.120
205.35	-43.681
205.72	-70.854
206.09	-175.099
206.46	-105.051
206.82	-163.579
207.19	-165.358
207.56	-150.524
207.92	-165.684
208.29	-106.113
208.66	-71.159
209.03	-71.883
209.39	-27.524
209.76	-16.361
210.13	16.220
210.50	22.683
210.86	21.967
211.23	11.643
211.60	1.497
211.96	4.052
212.33	-19.549
212.70	1788.281
213.07	183.016
213.43	200.369
213.80	371.278
214.17	145.951
214.53	555.671
214.90	9.901
215.27	27.902
215.63	-17.021
216.00	26.259
216.37	15.025
216.74	2.450
217.10	6.201
217.47	10.071
217.84	-2.472
218.20	6.366
218.57	0.328
218.94	-20.160
219.30	-13.755
219.67	-3.874
220.04	-12.723
220.40	-2.018
220.77	-6.199
221.13	-11.379
221.50	-7.487
221.87	0.846
222.23	-0.605
222.60	-5.498
222.97	-1.554
223.33	-9.338
223.70	-15.989
224.07	-16.576
224.43	-17.667
224.80	-8.709
225.16	-8.898
225.53	-8.297
225.90	-8.619
226.26	-6.859
226.63	-4.990
226.99	-4.888
227.36	-2.419
227.73	-0.372
228.09	0.314
228.46	1.200
228.82	-0.040
229.19	2.388
229.56	1.722
229.92	3.693
230.29	2.689
230.65	3.706
231.02	3.008
231.38	3.987
231.75	2.769
232.12	3.261
232.48	3.416
232.85	5.543
233.21	4.805
233.58	8.138
233.94	8.306
234.31	9.081
234.68	7.840
235.04	9.441
235.41	5.402
235.77	6.647
236.14	7.360
236.50	9.075
236.87	7.861
237.23	6.992
237.60	3.031
237.96	1.488
238.33	0.872
238.69	0.936
239.06	0.129
239.42	1.130
239.79	1.062
240.15	1.175
240.52	0.483
240.88	0.367
241.25	0.227
241.61	0.694
241.98	1.147
242.34	1.099
242.71	1.188
243.07	1.515
243.44	2.364
243.80	2.805
244.17	2.207
244.53	2.005
244.90	2.141
245.26	2.525
245.63	2.682
245.99	2.363
246.36	2.489
246.72	2.330
247.09	2.177
247.45	2.069
247.81	1.768
248.18	1.765
248.54	2.053
248.91	1.910
249.27	1.535
249.64	1.734
250.00	2.089
250.36	2.477
250.73	2.231
251.09	1.966
251.46	1.268
251.82	1.311
252.19	1.625
252.55	1.767
252.91	2.273
253.28	2.597
253.64	1.950
254.01	1.759
254.37	1.301
254.73	1.869
255.10	2.361
255.46	3.318
255.83	3.320
256.19	3.404
256.55	3.052
256.92	2.874
257.28	2.940
257.65	3.322
258.01	3.244
258.37	3.203
258.74	3.172
259.10	3.165
259.46	2.684
259.83	2.653
260.19	2.596
260.55	2.654
260.92	2.733
261.28	2.438
261.64	2.189
262.01	1.880
262.37	1.704
262.73	1.738
263.10	1.142
263.46	1.558
263.82	1.429
264.19	1.172
264.55	1.391
264.91	1.437
265.28	1.643
265.64	1.435
266.00	1.579
266.37	2.244
266.73	2.516
267.09	3.087
267.46	2.699
267.82	2.898
268.18	3.173
268.54	3.002
268.91	2.930
269.27	2.793
269.63	2.918
270.00	3.072
270.36	2.743
270.72	2.649
271.08	2.448
271.45	2.711
271.81	2.781
272.17	3.066
272.53	3.174
272.90	3.193
273.26	3.405
273.62	3.443
273.98	3.628
274.35	3.658
274.71	3.625
275.07	3.948
275.43	3.756
275.80	3.712
276.16	3.324
276.52	3.096
276.88	3.049
277.25	2.792
277.61	2.812
277.97	2.743
278.33	2.697
278.69	2.833
279.06	2.509
279.42	2.479
279.78	2.425
280.14	2.445
280.50	2.702
280.87	2.672
281.23	2.714
281.59	2.817
281.95	2.817
282.31	2.703
282.68	2.617
283.04	2.657
283.40	2.427
283.76	2.409
284.12	2.364
284.48	2.275
284.85	2.339
285.21	2.491
285.57	2.507
285.93	2.559
286.29	2.662
286.65	2.766
287.02	2.890
287.38	3.211
287.74	3.221
288.10	3.261
288.46	3.371
288.82	3.174
289.18	2.657
289.54	2.539
289.91	2.551
290.27	2.575
290.63	2.399
290.99	2.220
291.35	2.131
291.71	1.900
292.07	1.926
292.43	1.804
292.79	1.990
293.16	2.328
293.52	2.285
293.88	2.260
294.24	2.159
294.60	2.150
294.96	2.238
295.32	2.316
295.68	2.252
296.04	2.438
296.40	2.493
296.76	2.541
297.12	2.660
297.49	2.767
297.85	2.918
298.21	3.042
298.57	2.932
298.93	3.126
299.29	3.248
299.65	3.621
300.01	3.401
300.37	3.417
300.73	3.431
301.09	3.505
301.45	3.449
301.81	3.345
302.17	3.246
302.53	3.393
302.89	3.166
303.25	3.037
303.61	2.974
303.97	3.043
304.33	3.181
304.69	3.223
305.05	3.183
305.41	3.367
305.77	3.417
306.13	3.541
306.49	3.637
306.85	3.796
307.21	3.774
307.57	3.710
307.93	3.798
308.29	3.648
308.65	3.382
309.01	3.335
309.37	3.207
309.73	3.213
310.09	3.162
310.45	2.997
310.81	2.842
311.17	2.892
311.53	2.907
311.89	2.938
312.25	3.026
312.61	3.264
312.96	3.333
313.32	3.301
313.68	3.195
314.04	3.276
314.40	3.301
314.76	3.511
315.12	3.544
315.48	3.620
315.84	3.280
316.20	3.100
316.56	3.116
316.92	3.012
317.27	3.192
317.63	3.176
317.99	3.004
318.35	3.130
318.71	3.224
319.07	3.292
319.43	3.176
319.79	3.315
320.15	3.431
320.50	3.446
320.86	3.550
321.22	3.523
321.58	3.553
321.94	3.653
322.30	3.822
322.66	3.775
323.01	3.625
323.37	3.803
323.73	3.727
324.09	3.916
324.45	3.908
324.81	3.840
325.17	3.821
325.52	3.951
325.88	4.049
326.24	3.845
326.60	3.734
326.96	3.846
327.31	3.655
327.67	3.795
328.03	3.697
328.39	3.602
328.75	3.680
329.11	3.759
329.46	3.686
329.82	3.657
330.18	3.802
330.54	3.880
330.90	3.857
331.25	3.948
331.61	3.951
331.97	3.878
332.33	3.913
332.68	3.928
333.04	3.891
333.40	3.824
333.76	3.847
334.11	3.754
334.47	3.785
334.83	3.814
335.19	3.865
335.54	3.855
335.90	3.782
336.26	3.769
336.62	3.785
336.97	3.735
337.33	3.810
337.69	3.800
338.05	3.923
338.40	3.899
338.76	3.924
339.12	3.914
339.48	3.853
339.83	3.962
340.19	4.118
340.55	4.028
340.90	3.986
341.26	3.988
341.62	3.958
341.97	3.882
342.33	3.846
342.69	3.809
343.04	3.855
343.40	4.023
343.76	3.977
344.12	3.885
344.47	3.888
344.83	3.958
345.19	3.961
345.54	3.973
345.90	3.923
346.26	3.953
346.61	3.939
346.97	3.968
347.32	3.846
347.68	3.860
348.04	3.826
348.39	3.896
348.75	3.878
349.11	3.852
349.46	3.830
349.82	3.951
350.18	3.938
350.53	3.987
350.89	3.878
351.24	3.905
351.60	3.852
351.96	3.938
352.31	3.908
352.67	3.888
353.02	3.930
353.38	3.980
353.74	3.946
354.09	3.941
354.45	3.871
354.80	3.867
355.16	3.909
355.52	3.942
355.87	3.869
356.23	3.922
356.58	3.945
356.94	3.944
357.29	3.927
357.65	3.955
358.00	3.967
358.36	4.028
358.72	4.023
359.07	3.990
359.43	4.026
359.78	4.083
360.14	4.049
360.49	4.061
360.85	4.064
361.20	4.109
361.56	3.998
361.91	4.012
362.27	4.042
362.62	4.114
362.98	4.165
363.33	4.189
363.69	4.230
364.04	4.254
364.40	4.320
364.75	4.324
365.11	4.267
365.46	4.330
365.82	4.353
366.17	4.313
366.53	4.228
366.88	4.198
367.24	4.142
367.59	4.103
367.95	4.160
368.30	4.138
368.66	4.156
369.01	4.219
369.37	4.248
369.72	4.265
370.08	4.329
370.43	4.363
370.78	4.388
371.14	4.431
371.49	4.414
371.85	4.404
372.20	4.425
372.56	4.482
372.91	4.463
373.26	4.508
373.62	4.472
373.97	4.490
374.33	4.548
374.68	4.556
375.03	4.552
375.39	4.591
375.74	4.589
376.10	4.610
376.45	4.602
376.80	4.640
377.16	4.601
377.51	4.647
377.87	4.654
378.22	4.660
378.57	4.660
378.93	4.698
379.28	4.696
379.63	4.701
379.99	4.682
380.34	4.648
380.70	4.672
381.05	4.710
381.40	4.675
381.76	4.675
382.11	4.698
382.46	4.729
382.82	4.712
383.17	4.719
383.52	4.749
383.88	4.777
384.23	4.842
384.58	4.870
384.94	4.878
385.29	4.967
385.64	4.951
385.99	4.950
386.35	4.964
386.70	4.981
387.05	5.026
387.41	5.049
387.76	5.031
388.11	5.022
388.47	4.986
388.82	4.991
389.17	4.987
389.52	5.003
389.88	5.010
390.23	5.032
390.58	5.031
390.93	5.057
391.29	5.082
391.64	5.135
391.99	5.160
392.34	5.201
392.70	5.245
393.05	5.259
393.40	5.312
393.75	5.349
394.11	5.326
394.46	5.338
394.81	5.362
395.16	5.370
395.52	5.383
395.87	5.385
396.22	5.400
396.57	5.407
396.92	5.394
397.28	5.369
397.63	5.364
397.98	5.439
398.33	5.496
398.68	5.485
399.04	5.454
399.39	5.421
399.74	5.431
400.09	5.459
400.44	5.472
400.80	5.514
401.15	5.489
401.50	5.537
401.85	5.506
402.20	5.517
402.55	5.549
402.90	5.565
403.26	5.600
403.61	5.582
403.96	5.567
404.31	5.574
404.66	5.566
405.01	5.617
405.36	5.598
405.72	5.642
406.07	5.672
406.42	5.693
406.77	5.706
407.12	5.715
407.47	5.758
407.82	5.781
408.17	5.778
408.53	5.804
408.88	5.833
409.23	5.837
409.58	5.837
409.93	5.828
410.28	5.823
410.63	5.835
410.98	5.843
411.33	5.837
411.68	5.833
412.03	5.850
412.38	5.853
412.73	5.864
413.09	5.848
413.44	5.826
413.79	5.818
414.14	5.810
414.49	5.809
414.84	5.811
415.19	5.815
415.54	5.807
415.89	5.791
416.24	5.777
416.59	5.775
416.94	5.789
417.29	5.795
417.64	5.806
417.99	5.800
418.34	5.812
418.69	5.805
419.04	5.798
419.39	5.823
419.74	5.844
420.09	5.850
420.44	5.847
420.79	5.858
421.14	5.866
421.49	5.866
421.84	5.881
422.19	5.894
422.54	5.921
422.89	5.948
423.24	5.936
423.59	5.958
423.94	5.992
424.29	6.017
424.64	6.043
424.99	6.095
425.34	6.157
425.68	6.196
426.03	6.210
426.38	6.238
426.73	6.267
427.08	6.307
427.43	6.310
427.78	6.289
428.13	6.297
428.48	6.324
428.83	6.311
429.18	6.282
429.53	6.294
429.87	6.317
430.22	6.323
430.57	6.354
430.92	6.354
431.27	6.347
431.62	6.371
431.97	6.376
432.32	6.368
432.67	6.381
433.01	6.424
433.36	6.408
433.71	6.413
434.06	6.431
434.41	6.410
434.76	6.433
435.11	6.453
435.45	6.454
435.80	6.453
436.15	6.469
436.50	6.469
436.85	6.438
437.20	6.445
437.54	6.441
437.89	6.445
438.24	6.453
438.59	6.451
438.94	6.453
439.29	6.472
439.63	6.487
439.98	6.482
440.33	6.492
440.68	6.495
441.03	6.503
441.37	6.515
441.72	6.515
442.07	6.507
442.42	6.511
442.76	6.529
443.11	6.526
443.46	6.517
443.81	6.524
444.16	6.520
444.50	6.537
444.85	6.556
445.20	6.566
445.55	6.567
445.89	6.579
446.24	6.607
446.59	6.625
446.94	6.655
447.28	6.680
447.63	6.692
447.98	6.707
448.32	6.729
448.67	6.739
449.02	6.750
449.37	6.775
449.71	6.820
450.06	6.830
450.41	6.832
450.75	6.823
451.10	6.837
451.45	6.859
451.79	6.890
452.14	6.891
452.49	6.897
452.84	6.912
453.18	6.924
453.53	6.924
453.88	6.921
454.22	6.924
454.57	6.925
454.92	6.925
455.26	6.914
455.61	6.905
455.95	6.916
456.30	6.919
456.65	6.909
456.99	6.902
457.34	6.901
457.69	6.910
458.03	6.921
458.38	6.929
458.73	6.969
459.07	6.987
459.42	6.992
459.76	6.992
460.11	7.021
460.46	7.067
460.80	7.086
461.15	7.105
461.49	7.123
461.84	7.155
462.19	7.201
462.53	7.202
462.88	7.241
463.22	7.273
463.57	7.309
463.91	7.321
464.26	7.352
464.61	7.363
464.95	7.397
465.30	7.424
465.64	7.431
465.99	7.445
466.33	7.447
466.68	7.445
467.02	7.469
467.37	7.489
467.71	7.476
468.06	7.457
468.41	7.476
468.75	7.473
469.10	7.465
469.44	7.482
469.79	7.481
470.13	7.499
470.48	7.541
470.82	7.557
471.17	7.567
471.51	7.591
471.86	7.613
472.20	7.609
472.55	7.603
472.89	7.624
473.23	7.594
473.58	7.591
473.92	7.579
474.27	7.551
474.61	7.534
474.96	7.522
475.30	7.535
475.65	7.539
475.99	7.556
476.34	7.567
476.68	7.548
477.02	7.567
477.37	7.582
477.71	7.580
478.06	7.576
478.40	7.574
478.75	7.591
479.09	7.627
479.43	7.662
479.78	7.719
480.12	7.780
480.47	7.864
480.81	7.947
481.15	8.029
481.50	8.109
481.84	8.227
482.19	8.336
482.53	8.419
482.87	8.443
483.22	8.407
483.56	8.317
483.90	8.226
484.25	8.138
484.59	8.094
484.94	8.034
485.28	7.976
485.62	7.876
485.97	7.785
486.31	7.705
486.65	7.675
487.00	7.718
487.34	7.823
487.68	7.923
488.03	8.007
488.37	8.019
488.71	8.039
489.06	8.059
489.40	8.062
489.74	8.082
490.09	8.110
490.43	8.131
490.77	8.144
491.11	8.166
491.46	8.190
491.80	8.211
492.14	8.225
492.49	8.246
492.83	8.263
493.17	8.305
493.51	8.312
493.86	8.334
494.20	8.367
494.54	8.387
494.88	8.396
495.23	8.408
495.57	8.409
495.91	8.455
496.25	8.485
496.60	8.534
496.94	8.556
497.28	8.581
497.62	8.601
497.97	8.625
498.31	8.673
498.65	8.726
498.99	8.778
499.33	8.843
499.68	8.858
500.02	8.899
500.36	8.929
500.70	8.974
501.04	9.032
501.39	9.074
501.73	9.113
502.07	9.132
502.41	9.169
502.75	9.204
503.09	9.229
503.44	9.281
503.78	9.306
504.12	9.344
504.46	9.388
504.80	9.432
505.14	9.465
505.49	9.510
505.83	9.566
506.17	9.579
506.51	9.627
506.85	9.661
507.19	9.686
507.53	9.725
507.87	9.760
508.22	9.786
508.56	9.816
508.90	9.852
509.24	9.893
509.58	9.930
509.92	9.972
510.26	10.001
510.60	10.046
510.94	10.100
511.28	10.131
511.63	10.183
511.97	10.234
512.31	10.271
512.65	10.316
512.99	10.355
513.33	10.406
513.67	10.459
514.01	10.505
514.35	10.543
514.69	10.575
515.03	10.618
515.37	10.622
515.71	10.653
516.05	10.679
516.39	10.695
516.73	10.716
517.07	10.733
517.41	10.771
517.75	10.795
518.09	10.832
518.43	10.854
518.77	10.879
519.11	10.899
519.45	10.915
519.79	10.954
520.13	10.994
520.47	11.019
520.81	11.044
521.15	11.057
521.49	11.061
521.83	11.052
522.17	11.068
522.51	11.073
522.85	11.113
523.19	11.163
523.53	11.204
523.87	11.252
524.21	11.312
524.55	11.383
524.89	11.429
525.23	11.498
525.57	11.569
525.91	11.626
526.25	11.685
526.58	11.728
526.92	11.763
527.26	11.803
527.60	11.831
527.94	11.845
528.28	11.849
528.62	11.867
528.96	11.879
529.30	11.869
529.64	11.875
529.97	11.874
530.31	11.885
530.65	11.886
530.99	11.874
531.33	11.884
531.67	11.896
532.01	11.921
532.35	11.937
532.68	11.951
533.02	11.988
533.36	11.997
533.70	12.009
534.04	12.022
534.38	12.040
534.71	12.077
535.05	12.091
535.39	12.107
535.73	12.117
536.07	12.128
536.41	12.153
536.74	12.161
537.08	12.212
537.42	12.248
537.76	12.285
538.10	12.323
538.43	12.332
538.77	12.360
539.11	12.401
539.45	12.419
539.79	12.440
540.12	12.442
540.46	12.462
540.80	12.452
541.14	12.461
541.47	12.467
541.81	12.465
542.15	12.478
542.49	12.498
542.82	12.502
543.16	12.519
543.50	12.546
543.84	12.574
544.17	12.595
544.51	12.638
544.85	12.685
545.18	12.699
545.52	12.738
545.86	12.761
546.20	12.773
546.53	12.802
546.87	12.825
547.21	12.832
547.54	12.860
547.88	12.889
548.22	12.914
548.55	12.913
548.89	12.943
549.23	12.953
549.56	12.990
549.90	13.026
550.24	13.062
550.57	13.082
550.91	13.102
551.25	13.119
551.58	13.121
551.92	13.117
552.26	13.138
552.59	13.163
552.93	13.198
553.27	13.202
553.60	13.207
553.94	13.192
554.27	13.215
554.61	13.242
554.95	13.266
555.28	13.297
555.62	13.303
555.95	13.319
556.29	13.332
556.63	13.348
556.96	13.379
557.30	13.406
557.63	13.430
557.97	13.461
558.31	13.474
558.64	13.486
558.98	13.502
559.31	13.532
559.65	13.527
559.98	13.510
560.32	13.500
560.65	13.490
560.99	13.495
561.33	13.491
561.66	13.487
562.00	13.479
562.33	13.464
562.67	13.458
563.00	13.457
563.34	13.487
563.67	13.514
564.01	13.507
564.34	13.496
564.68	13.497
565.01	13.507
565.35	13.508
565.68	13.518
566.02	13.530
566.35	13.553
566.69	13.548
567.02	13.498
567.36	13.514
567.69	13.519
568.03	13.532
568.36	13.536
568.69	13.569
569.03	13.554
569.36	13.572
569.70	13.578
570.03	13.547
570.37	13.546
570.70	13.589
571.04	13.590
571.37	13.594
571.70	13.588
572.04	13.574
572.37	13.563
572.71	13.597
573.04	13.588
573.37	13.605
573.71	13.636
574.04	13.667
574.38	13.677
574.71	13.699
575.04	13.742
575.38	13.777
575.71	13.805
576.05	13.804
576.38	13.823
576.71	13.825
577.05	13.836
577.38	13.853
577.71	13.860
578.05	13.881
578.38	13.860
578.71	13.832
579.05	13.827
579.38	13.843
579.71	13.865
580.05	13.840
580.38	13.874
580.71	13.850
581.05	13.850
581.38	13.854
581.71	13.813
582.05	13.829
582.38	13.818
582.71	13.800
583.04	13.796
583.38	13.785
583.71	13.782
584.04	13.748
584.38	13.774
584.71	13.777
585.04	13.752
585.37	13.775
585.71	13.734
586.04	13.768
586.37	13.786
586.70	13.754
587.04	13.733
587.37	13.726
587.70	13.710
588.03	13.667
588.37	13.620
588.70	13.627
589.03	13.598
589.36	13.587
589.69	13.527
590.03	13.486
590.36	13.487
590.69	13.461
591.02	13.439
591.35	13.415
591.69	13.391
592.02	13.371
592.35	13.328
592.68	13.293
593.01	13.265
593.35	13.254
593.68	13.224
594.01	13.204
594.34	13.198
594.67	13.156
595.00	13.109
595.34	13.086
595.67	13.071
596.00	13.054
596.33	13.048
596.66	13.048
596.99	13.039
597.32	13.036
597.65	12.973
597.99	12.935
598.32	12.893
598.65	12.880
598.98	12.868
599.31	12.854
599.64	12.836
599.97	12.795
600.30	12.757
600.63	12.719
600.96	12.697
601.30	12.666
601.63	12.628
601.96	12.638
602.29	12.632
602.62	12.616
602.95	12.576
603.28	12.553
603.61	12.521
603.94	12.483
604.27	12.468
604.60	12.460
604.93	12.479
605.26	12.481
605.59	12.451
605.92	12.439
606.25	12.438
606.58	12.427
606.91	12.375
607.24	12.358
607.57	12.344
607.90	12.319
608.23	12.294
608.56	12.243
608.89	12.200
609.22	12.165
609.55	12.142
609.88	12.100
610.21	12.080
610.54	12.064
610.87	12.043
611.20	12.011
611.53	11.982
611.86	11.921
612.19	11.940
612.52	11.941
612.85	11.958
613.18	11.930
613.51	11.861
613.84	11.835
614.17	11.841
614.49	11.827
614.82	11.833
615.15	11.824
615.48	11.821
615.81	11.773
616.14	11.763
616.47	11.761
616.80	11.776
617.13	11.815
617.46	11.814
617.78	11.781
618.11	11.762
618.44	11.770
618.77	11.749
619.10	11.721
619.43	11.718
619.76	11.666
620.09	11.606
620.41	11.568
620.74	11.563
621.07	11.526
621.40	11.570
621.73	11.597
622.06	11.577
622.38	11.584
622.71	11.547
623.04	11.497
623.37	11.507
623.70	11.494
624.02	11.475
624.35	11.423
624.68	11.437
625.01	11.378
625.34	11.343
625.66	11.268
625.99	11.229
626.32	11.254
626.65	11.287
626.98	11.280
627.30	11.276
627.63	11.273
627.96	11.259
628.29	11.211
628.61	11.195
628.94	11.195
629.27	11.183
629.60	11.153
629.92	11.141
630.25	11.087
630.58	11.056
630.91	10.998
631.23	10.945
631.56	10.921
631.89	10.902
632.21	10.908
632.54	10.869
632.87	10.883
633.19	10.857
633.52	10.811
633.85	10.818
634.18	10.785
634.50	10.784
634.83	10.759
635.16	10.723
635.48	10.704
635.81	10.657
636.14	10.617
636.46	10.583
636.79	10.568
637.11	10.519
637.44	10.474
637.77	10.457
638.09	10.408
638.42	10.395
638.75	10.369
639.07	10.324
639.40	10.273
639.73	10.239
640.05	10.196
640.38	10.159
640.70	10.155
641.03	10.129
641.36	10.095
641.68	10.085
642.01	10.068
642.33	10.106
642.66	10.068
642.98	10.100
643.31	10.055
643.64	10.105
643.96	10.112
644.29	10.119
644.61	10.108
644.94	10.100
645.26	10.157
645.59	10.133
645.91	10.092
646.24	10.138
646.56	10.099
646.89	10.140
647.22	10.092
647.54	10.074
647.87	10.058
648.19	10.039
648.52	10.020
648.84	9.977
649.17	10.009
