OOIBase32 Version 2.0.0.6 Data File
++++++++++++++++++++++++++++++++++++
Date: 01-22-2012, 21:25:29
User: Valued Ocean Optics Customer
Spectrometer Serial Number: USB2E2917
Spectrometer Channel: Master
Integration Time (msec): 4
Spectra Averaged: 10
Boxcar Smoothing: 5
Correct for Electrical Dark: Enabled
Time Normalized: Disabled
Dual-beam Reference: Disabled
Reference Channel: Master
Temperature: Not acquired
Spectrometer Type: S2000
ADC Type: USB2000
Number of Pixels in File: 2048
Graph Title: 
>>>>>Begin Spectral Data<<<<<
180.30	0.000
180.67	0.000
181.03	-118.572
181.40	293.161
181.77	-227.842
182.14	77.454
182.51	668.406
182.88	18.529
183.25	162.122
183.62	174.597
183.99	-45.258
184.36	186.173
184.73	-1.389
185.10	-1501.493
185.46	152.362
185.83	4.834
186.20	39.698
186.57	401.693
186.94	18.269
187.31	-66.417
187.68	-2095.588
188.05	-503.928
188.42	-294.502
188.78	345.652
189.15	96.314
189.52	50.648
189.89	21.087
190.26	13.439
190.63	13.243
191.00	-11.781
191.37	-19.047
191.73	-38.136
192.10	-68.682
192.47	-62.107
192.84	-211.925
193.21	-195.010
193.58	0.278
193.94	28.943
194.31	61.812
194.68	9.511
195.05	1.708
195.42	3.499
195.79	9.465
196.15	-2.681
196.52	17.325
196.89	1.068
197.26	-24.403
197.63	-62.765
198.00	-95.985
198.36	-176.998
198.73	-233.836
199.10	-87.810
199.47	-22.067
199.84	-25.399
200.20	-48.574
200.57	-24.233
200.94	24.839
201.31	51.958
201.68	59.550
202.04	67.797
202.41	61.140
202.78	67.691
203.15	74.419
203.51	75.709
203.88	90.496
204.25	76.495
204.62	66.338
204.98	63.670
205.35	53.513
205.72	43.827
206.09	-3.454
206.46	5.966
206.82	-45.990
207.19	-87.035
207.56	-108.528
207.92	-111.413
208.29	-50.103
208.66	-46.625
209.03	-60.990
209.39	-29.836
209.76	-26.561
210.13	1.275
210.50	0.037
210.86	-7.468
211.23	10.862
211.60	-15.353
211.96	-28.601
212.33	-109.019
212.70	4747.639
213.07	503.878
213.43	381.333
213.80	1076.217
214.17	264.947
214.53	1553.851
214.90	-142.351
215.27	-60.965
215.63	-88.953
216.00	-56.037
216.37	-15.456
216.74	-8.299
217.10	5.108
217.47	-0.083
217.84	4.319
218.20	11.401
218.57	29.577
218.94	12.013
219.30	9.583
219.67	11.546
220.04	12.993
220.40	20.558
220.77	18.419
221.13	9.600
221.50	10.027
221.87	10.595
222.23	14.551
222.60	-0.437
222.97	5.592
223.33	-2.283
223.70	-1.335
224.07	-2.746
224.43	-4.253
224.80	2.407
225.16	-1.792
225.53	-1.970
225.90	-1.734
226.26	-2.603
226.63	-2.581
226.99	-4.248
227.36	-1.975
227.73	-0.938
228.09	0.181
228.46	0.934
228.82	0.090
229.19	3.318
229.56	2.030
229.92	4.134
230.29	3.280
230.65	5.736
231.02	5.629
231.38	5.145
231.75	5.432
232.12	4.780
232.48	3.782
232.85	5.010
233.21	3.802
233.58	6.602
233.94	4.995
234.31	7.658
234.68	5.594
235.04	8.564
235.41	7.646
235.77	5.308
236.14	5.092
236.50	6.972
236.87	7.256
237.23	6.684
237.60	5.060
237.96	4.459
238.33	3.060
238.69	4.512
239.06	3.305
239.42	3.529
239.79	3.940
240.15	4.453
240.52	3.809
240.88	2.791
241.25	2.433
241.61	2.412
241.98	2.230
242.34	2.343
242.71	1.927
243.07	2.166
243.44	2.473
243.80	2.531
244.17	1.706
244.53	1.561
244.90	2.245
245.26	2.541
245.63	2.604
245.99	2.990
246.36	3.003
246.72	3.008
247.09	2.966
247.45	3.085
247.81	3.295
248.18	3.798
248.54	4.125
248.91	3.627
249.27	3.247
249.64	3.512
250.00	3.493
250.36	3.663
250.73	3.366
251.09	2.744
251.46	2.367
251.82	2.335
252.19	2.517
252.55	2.154
252.91	2.288
253.28	2.316
253.64	1.997
254.01	1.664
254.37	1.884
254.73	2.675
255.10	2.864
255.46	2.941
255.83	2.927
256.19	2.828
256.55	3.026
256.92	2.936
257.28	3.136
257.65	3.200
258.01	3.047
258.37	2.862
258.74	2.644
259.10	2.823
259.46	2.868
259.83	2.944
260.19	3.132
260.55	3.023
260.92	2.978
261.28	2.823
261.64	2.769
262.01	2.759
262.37	2.758
262.73	2.832
263.10	2.517
263.46	2.404
263.82	2.050
264.19	1.814
264.55	2.130
264.91	2.331
265.28	2.542
265.64	2.673
266.00	2.760
266.37	2.912
266.73	2.983
267.09	3.102
267.46	2.580
267.82	2.709
268.18	2.843
268.54	2.638
268.91	2.789
269.27	2.601
269.63	2.381
270.00	2.380
270.36	2.319
270.72	2.140
271.08	2.007
271.45	2.548
271.81	2.707
272.17	2.890
272.53	3.046
272.90	2.879
273.26	3.026
273.62	3.303
273.98	3.748
274.35	3.671
274.71	3.676
275.07	4.064
275.43	4.180
275.80	3.979
276.16	3.899
276.52	3.779
276.88	4.036
277.25	3.658
277.61	3.792
277.97	3.273
278.33	3.285
278.69	3.376
279.06	3.106
279.42	2.949
279.78	3.171
280.14	3.039
280.50	3.149
280.87	2.854
281.23	3.052
281.59	2.816
281.95	3.058
282.31	3.159
282.68	3.119
283.04	3.151
283.40	2.895
283.76	2.575
284.12	2.678
284.48	2.542
284.85	2.562
285.21	2.651
285.57	2.814
285.93	2.794
286.29	2.572
286.65	2.718
287.02	2.933
287.38	3.086
287.74	3.352
288.10	3.300
288.46	3.316
288.82	3.243
289.18	3.026
289.54	2.906
289.91	2.753
290.27	3.100
290.63	3.213
290.99	2.981
291.35	3.215
291.71	3.065
292.07	3.026
292.43	2.991
292.79	3.196
293.16	3.435
293.52	3.583
293.88	3.792
294.24	3.767
294.60	3.712
294.96	3.816
295.32	3.868
295.68	3.939
296.04	4.012
296.40	4.165
296.76	4.188
297.12	4.372
297.49	4.397
297.85	4.544
298.21	4.609
298.57	4.556
298.93	4.715
299.29	4.767
299.65	5.094
300.01	5.108
300.37	5.115
300.73	5.208
301.09	5.121
301.45	5.112
301.81	5.102
302.17	5.099
302.53	5.146
302.89	5.144
303.25	5.107
303.61	4.967
303.97	5.132
304.33	5.412
304.69	5.712
305.05	5.895
305.41	6.050
305.77	6.118
306.13	6.192
306.49	6.373
306.85	6.468
307.21	6.420
307.57	6.425
307.93	6.423
308.29	6.304
308.65	5.972
309.01	5.864
309.37	5.732
309.73	5.752
310.09	5.772
310.45	5.711
310.81	5.657
311.17	5.575
311.53	5.570
311.89	5.568
312.25	5.603
312.61	5.809
312.96	5.884
313.32	5.978
313.68	5.808
314.04	5.774
314.40	5.649
314.76	5.687
315.12	5.801
315.48	5.873
315.84	5.617
316.20	5.509
316.56	5.522
316.92	5.388
317.27	5.510
317.63	5.497
317.99	5.481
318.35	5.609
318.71	5.653
319.07	5.857
319.43	5.707
319.79	5.844
320.15	5.921
320.50	5.906
320.86	5.984
321.22	5.786
321.58	5.696
321.94	5.666
322.30	5.801
322.66	5.724
323.01	5.472
323.37	5.535
323.73	5.511
324.09	5.666
324.45	5.690
324.81	5.719
325.17	5.772
325.52	5.940
325.88	5.957
326.24	5.834
326.60	5.720
326.96	5.801
327.31	5.618
327.67	5.724
328.03	5.481
328.39	5.238
328.75	5.171
329.11	5.198
329.46	5.144
329.82	5.128
330.18	5.194
330.54	5.327
330.90	5.291
331.25	5.505
331.61	5.349
331.97	5.227
332.33	5.337
332.68	5.379
333.04	5.262
333.40	5.252
333.76	5.223
334.11	5.095
334.47	5.068
334.83	5.017
335.19	4.943
335.54	4.913
335.90	4.936
336.26	4.873
336.62	4.831
336.97	4.766
337.33	4.783
337.69	4.759
338.05	4.845
338.40	4.755
338.76	4.781
339.12	4.778
339.48	4.802
339.83	4.857
340.19	4.962
340.55	4.951
340.90	5.069
341.26	5.067
341.62	5.037
341.97	4.977
342.33	4.962
342.69	4.969
343.04	4.952
343.40	5.019
343.76	4.938
344.12	4.843
344.47	4.806
344.83	4.769
345.19	4.740
345.54	4.793
345.90	4.718
346.26	4.709
346.61	4.644
346.97	4.673
347.32	4.593
347.68	4.618
348.04	4.660
348.39	4.711
348.75	4.723
349.11	4.730
349.46	4.654
349.82	4.677
350.18	4.758
350.53	4.850
350.89	4.812
351.24	4.789
351.60	4.818
351.96	4.841
352.31	4.830
352.67	4.722
353.02	4.641
353.38	4.642
353.74	4.599
354.09	4.505
354.45	4.446
354.80	4.412
355.16	4.406
355.52	4.344
355.87	4.289
356.23	4.318
356.58	4.395
356.94	4.408
357.29	4.430
357.65	4.412
358.00	4.419
358.36	4.385
358.72	4.329
359.07	4.227
359.43	4.256
359.78	4.254
360.14	4.160
360.49	4.175
360.85	4.109
361.20	4.089
361.56	4.094
361.91	4.123
362.27	4.135
362.62	4.219
362.98	4.364
363.33	4.366
363.69	4.408
364.04	4.445
364.40	4.402
364.75	4.431
365.11	4.422
365.46	4.430
365.82	4.382
366.17	4.340
366.53	4.298
366.88	4.269
367.24	4.318
367.59	4.234
367.95	4.232
368.30	4.236
368.66	4.242
369.01	4.279
369.37	4.278
369.72	4.296
370.08	4.309
370.43	4.289
370.78	4.285
371.14	4.183
371.49	4.189
371.85	4.165
372.20	4.182
372.56	4.231
372.91	4.150
373.26	4.178
373.62	4.150
373.97	4.176
374.33	4.212
374.68	4.214
375.03	4.202
375.39	4.147
375.74	4.150
376.10	4.089
376.45	4.050
376.80	4.076
377.16	3.987
377.51	3.963
377.87	3.980
378.22	3.983
378.57	3.939
378.93	3.946
379.28	3.976
379.63	3.968
379.99	3.958
380.34	3.935
380.70	3.932
381.05	3.937
381.40	3.936
381.76	3.909
382.11	3.807
382.46	3.826
382.82	3.767
383.17	3.731
383.52	3.685
383.88	3.707
384.23	3.687
384.58	3.685
384.94	3.739
385.29	3.771
385.64	3.752
385.99	3.816
386.35	3.810
386.70	3.844
387.05	3.867
387.41	3.880
387.76	3.835
388.11	3.820
388.47	3.772
388.82	3.753
389.17	3.734
389.52	3.690
389.88	3.690
390.23	3.643
390.58	3.607
390.93	3.599
391.29	3.617
391.64	3.621
391.99	3.652
392.34	3.700
392.70	3.695
393.05	3.693
393.40	3.721
393.75	3.685
394.11	3.674
394.46	3.674
394.81	3.672
395.16	3.623
395.52	3.652
395.87	3.617
396.22	3.623
396.57	3.595
396.92	3.563
397.28	3.538
397.63	3.527
397.98	3.560
398.33	3.613
398.68	3.600
399.04	3.594
399.39	3.558
399.74	3.551
400.09	3.504
400.44	3.487
400.80	3.467
401.15	3.456
401.50	3.485
401.85	3.466
402.20	3.423
402.55	3.403
402.90	3.430
403.26	3.442
403.61	3.413
403.96	3.379
404.31	3.441
404.66	3.461
405.01	3.469
405.36	3.415
405.72	3.412
406.07	3.417
406.42	3.458
406.77	3.426
407.12	3.408
407.47	3.456
407.82	3.476
408.17	3.371
408.53	3.349
408.88	3.343
409.23	3.361
409.58	3.379
409.93	3.390
410.28	3.382
410.63	3.406
410.98	3.360
411.33	3.334
411.68	3.328
412.03	3.357
412.38	3.355
412.73	3.365
413.09	3.348
413.44	3.315
413.79	3.314
414.14	3.312
414.49	3.256
414.84	3.282
415.19	3.270
415.54	3.280
415.89	3.254
416.24	3.241
416.59	3.216
416.94	3.219
417.29	3.185
417.64	3.172
417.99	3.138
418.34	3.142
418.69	3.117
419.04	3.100
419.39	3.100
419.74	3.113
420.09	3.114
420.44	3.106
420.79	3.106
421.14	3.114
421.49	3.110
421.84	3.111
422.19	3.105
422.54	3.117
422.89	3.118
423.24	3.093
423.59	3.085
423.94	3.084
424.29	3.086
424.64	3.075
424.99	3.111
425.34	3.109
425.68	3.120
426.03	3.132
426.38	3.143
426.73	3.157
427.08	3.146
427.43	3.141
427.78	3.129
428.13	3.126
428.48	3.140
428.83	3.084
429.18	3.061
429.53	3.063
429.87	3.051
430.22	3.036
430.57	3.020
430.92	3.039
431.27	3.034
431.62	3.023
431.97	3.019
432.32	3.001
432.67	2.997
433.01	2.998
433.36	2.976
433.71	2.970
434.06	2.970
434.41	2.966
434.76	2.963
435.11	2.991
435.45	2.989
435.80	2.972
436.15	2.993
436.50	3.005
436.85	3.015
437.20	3.007
437.54	3.014
437.89	3.011
438.24	3.008
438.59	3.014
438.94	2.984
439.29	2.985
439.63	2.982
439.98	2.951
440.33	2.958
440.68	2.951
441.03	2.966
441.37	2.947
441.72	2.945
442.07	2.946
442.42	2.925
442.76	2.936
443.11	2.922
443.46	2.933
443.81	2.932
444.16	2.914
444.50	2.919
444.85	2.902
445.20	2.913
445.55	2.897
445.89	2.888
446.24	2.894
446.59	2.891
446.94	2.894
447.28	2.894
447.63	2.880
447.98	2.881
448.32	2.857
448.67	2.860
449.02	2.847
449.37	2.860
449.71	2.871
450.06	2.888
450.41	2.870
450.75	2.863
451.10	2.866
451.45	2.879
451.79	2.880
452.14	2.898
452.49	2.908
452.84	2.913
453.18	2.906
453.53	2.910
453.88	2.872
454.22	2.866
454.57	2.876
454.92	2.851
455.26	2.839
455.61	2.833
455.95	2.825
456.30	2.814
456.65	2.802
456.99	2.786
457.34	2.777
457.69	2.784
458.03	2.789
458.38	2.794
458.73	2.811
459.07	2.814
459.42	2.809
459.76	2.796
460.11	2.804
460.46	2.813
460.80	2.812
461.15	2.802
461.49	2.795
461.84	2.790
462.19	2.780
462.53	2.770
462.88	2.762
463.22	2.764
463.57	2.775
463.91	2.756
464.26	2.756
464.61	2.777
464.95	2.804
465.30	2.808
465.64	2.816
465.99	2.808
466.33	2.796
466.68	2.786
467.02	2.785
467.37	2.783
467.71	2.783
468.06	2.765
468.41	2.736
468.75	2.720
469.10	2.717
469.44	2.720
469.79	2.724
470.13	2.702
470.48	2.709
470.82	2.718
471.17	2.707
471.51	2.706
471.86	2.723
472.20	2.716
472.55	2.706
472.89	2.700
473.23	2.668
473.58	2.644
473.92	2.652
474.27	2.642
474.61	2.626
474.96	2.619
475.30	2.629
475.65	2.621
475.99	2.633
476.34	2.613
476.68	2.599
477.02	2.620
477.37	2.625
477.71	2.622
478.06	2.623
478.40	2.620
478.75	2.656
479.09	2.673
479.43	2.707
479.78	2.745
480.12	2.788
480.47	2.819
480.81	2.841
481.15	2.873
481.50	2.909
481.84	2.956
482.19	3.000
482.53	3.025
482.87	3.027
483.22	3.007
483.56	2.970
483.90	2.914
484.25	2.882
484.59	2.863
484.94	2.834
485.28	2.798
485.62	2.758
485.97	2.709
486.31	2.666
486.65	2.643
487.00	2.639
487.34	2.654
487.68	2.686
488.03	2.707
488.37	2.704
488.71	2.702
489.06	2.695
489.40	2.680
489.74	2.679
490.09	2.667
490.43	2.651
490.77	2.641
491.11	2.632
491.46	2.629
491.80	2.599
492.14	2.576
492.49	2.564
492.83	2.555
493.17	2.538
493.51	2.499
493.86	2.485
494.20	2.476
494.54	2.468
494.88	2.457
495.23	2.448
495.57	2.442
495.91	2.441
496.25	2.444
496.60	2.439
496.94	2.423
497.28	2.427
497.62	2.420
497.97	2.418
498.31	2.417
498.65	2.421
498.99	2.411
499.33	2.415
499.68	2.403
500.02	2.386
500.36	2.383
500.70	2.393
501.04	2.396
501.39	2.395
501.73	2.397
502.07	2.376
502.41	2.360
502.75	2.364
503.09	2.367
503.44	2.376
503.78	2.382
504.12	2.385
504.46	2.377
504.80	2.379
505.14	2.386
505.49	2.402
505.83	2.397
506.17	2.397
506.51	2.401
506.85	2.405
507.19	2.405
507.53	2.407
507.87	2.398
508.22	2.416
508.56	2.421
508.90	2.411
509.24	2.399
509.58	2.424
509.92	2.422
510.26	2.417
510.60	2.402
510.94	2.399
511.28	2.392
511.63	2.395
511.97	2.383
512.31	2.374
512.65	2.382
512.99	2.396
513.33	2.377
513.67	2.387
514.01	2.386
514.35	2.409
514.69	2.425
515.03	2.431
515.37	2.442
515.71	2.455
516.05	2.448
516.39	2.434
516.73	2.427
517.07	2.439
517.41	2.437
517.75	2.440
518.09	2.417
518.43	2.405
518.77	2.386
519.11	2.362
519.45	2.345
519.79	2.359
520.13	2.364
520.47	2.364
520.81	2.361
521.15	2.360
521.49	2.365
521.83	2.377
522.17	2.377
522.51	2.395
522.85	2.426
523.19	2.452
523.53	2.476
523.87	2.504
524.21	2.531
524.55	2.559
524.89	2.588
525.23	2.604
525.57	2.628
525.91	2.650
526.25	2.662
526.58	2.669
526.92	2.679
527.26	2.685
527.60	2.684
527.94	2.672
528.28	2.666
528.62	2.654
528.96	2.653
529.30	2.642
529.64	2.627
529.97	2.630
530.31	2.620
530.65	2.604
530.99	2.587
531.33	2.580
531.67	2.585
532.01	2.577
532.35	2.579
532.68	2.577
533.02	2.570
533.36	2.572
533.70	2.556
534.04	2.560
534.38	2.548
534.71	2.535
535.05	2.521
535.39	2.510
535.73	2.507
536.07	2.499
536.41	2.500
536.74	2.513
537.08	2.513
537.42	2.522
537.76	2.523
538.10	2.539
538.43	2.555
538.77	2.576
539.11	2.587
539.45	2.593
539.79	2.607
540.12	2.605
540.46	2.598
540.80	2.586
541.14	2.588
541.47	2.588
541.81	2.587
542.15	2.575
542.49	2.557
542.82	2.546
543.16	2.534
543.50	2.511
543.84	2.510
544.17	2.481
544.51	2.475
544.85	2.460
545.18	2.438
545.52	2.419
545.86	2.413
546.20	2.408
546.53	2.396
546.87	2.380
547.21	2.358
547.54	2.342
547.88	2.361
548.22	2.360
548.55	2.328
548.89	2.315
549.23	2.310
549.56	2.315
549.90	2.305
550.24	2.302
550.57	2.301
550.91	2.315
551.25	2.295
551.58	2.291
551.92	2.291
552.26	2.317
552.59	2.320
552.93	2.325
553.27	2.298
553.60	2.306
553.94	2.307
554.27	2.329
554.61	2.322
554.95	2.325
555.28	2.307
555.62	2.298
555.95	2.280
556.29	2.282
556.63	2.287
556.96	2.299
557.30	2.314
557.63	2.299
557.97	2.295
558.31	2.291
558.64	2.302
558.98	2.328
559.31	2.331
559.65	2.328
559.98	2.316
560.32	2.319
560.65	2.304
560.99	2.284
561.33	2.291
561.66	2.285
562.00	2.279
562.33	2.273
562.67	2.263
563.00	2.274
563.34	2.307
563.67	2.312
564.01	2.287
564.34	2.296
564.68	2.303
565.01	2.304
565.35	2.307
565.68	2.320
566.02	2.327
566.35	2.323
566.69	2.315
567.02	2.285
567.36	2.308
567.69	2.300
568.03	2.306
568.36	2.316
568.69	2.332
569.03	2.330
569.36	2.335
569.70	2.345
570.03	2.360
570.37	2.364
570.70	2.369
571.04	2.365
571.37	2.374
571.70	2.376
572.04	2.350
572.37	2.335
572.71	2.338
573.04	2.321
573.37	2.317
573.71	2.319
574.04	2.330
574.38	2.335
574.71	2.314
575.04	2.316
575.38	2.304
575.71	2.307
576.05	2.311
576.38	2.299
576.71	2.302
577.05	2.291
577.38	2.265
577.71	2.250
578.05	2.217
578.38	2.221
578.71	2.222
579.05	2.223
579.38	2.212
579.71	2.210
580.05	2.190
580.38	2.184
580.71	2.175
581.05	2.172
581.38	2.147
581.71	2.157
582.05	2.144
582.38	2.110
582.71	2.109
583.04	2.120
583.38	2.120
583.71	2.110
584.04	2.119
584.38	2.115
584.71	2.090
585.04	2.096
585.37	2.082
585.71	2.095
586.04	2.122
586.37	2.127
586.70	2.107
587.04	2.092
587.37	2.105
587.70	2.055
588.03	2.004
588.37	2.027
588.70	2.026
589.03	2.018
589.36	2.001
589.69	1.970
590.03	1.939
590.36	1.947
590.69	1.921
591.02	1.909
591.35	1.910
591.69	1.934
592.02	1.912
592.35	1.912
592.68	1.892
593.01	1.882
593.35	1.891
593.68	1.870
594.01	1.853
594.34	1.867
594.67	1.848
595.00	1.832
595.34	1.809
595.67	1.782
596.00	1.731
596.33	1.735
596.66	1.703
596.99	1.660
597.32	1.634
597.65	1.578
597.99	1.524
598.32	1.499
598.65	1.454
598.98	1.411
599.31	1.394
599.64	1.390
599.97	1.367
600.30	1.360
600.63	1.347
600.96	1.372
601.30	1.383
601.63	1.390
601.96	1.381
602.29	1.400
602.62	1.416
602.95	1.411
603.28	1.392
603.61	1.383
603.94	1.359
604.27	1.352
604.60	1.339
604.93	1.334
605.26	1.300
605.59	1.276
605.92	1.269
606.25	1.276
606.58	1.257
606.91	1.252
607.24	1.236
607.57	1.244
607.90	1.236
608.23	1.194
608.56	1.153
608.89	1.124
609.22	1.091
609.55	1.068
609.88	0.977
610.21	0.941
610.54	0.888
610.87	0.837
611.20	0.774
611.53	0.718
611.86	0.674
612.19	0.641
612.52	0.622
612.85	0.627
613.18	0.559
613.51	0.532
613.84	0.498
614.17	0.504
614.49	0.500
614.82	0.535
615.15	0.551
615.48	0.566
615.81	0.606
616.14	0.590
616.47	0.573
616.80	0.622
617.13	0.653
617.46	0.665
617.78	0.585
618.11	0.577
618.44	0.558
618.77	0.521
619.10	0.466
619.43	0.424
619.76	0.434
620.09	0.404
620.41	0.355
620.74	0.335
621.07	0.333
621.40	0.421
621.73	0.423
622.06	0.428
622.38	0.460
622.71	0.518
623.04	0.514
623.37	0.531
623.70	0.572
624.02	0.594
624.35	0.597
624.68	0.627
625.01	0.619
625.34	0.642
625.66	0.637
625.99	0.629
626.32	0.593
626.65	0.621
626.98	0.599
627.30	0.592
627.63	0.582
627.96	0.588
628.29	0.536
628.61	0.506
628.94	0.452
629.27	0.408
629.60	0.377
629.92	0.402
630.25	0.374
630.58	0.341
630.91	0.292
631.23	0.255
631.56	0.247
631.89	0.259
632.21	0.297
632.54	0.297
632.87	0.309
633.19	0.293
633.52	0.234
633.85	0.220
634.18	0.185
634.50	0.189
634.83	0.182
635.16	0.127
635.48	0.102
635.81	0.053
636.14	0.047
636.46	-0.003
636.79	-0.007
637.11	-0.006
637.44	-0.060
637.77	-0.033
638.09	-0.076
638.42	-0.103
638.75	-0.121
639.07	-0.174
639.40	-0.224
639.73	-0.259
640.05	-0.283
640.38	-0.307
640.70	-0.325
641.03	-0.319
641.36	-0.346
641.68	-0.339
642.01	-0.315
642.33	-0.227
642.66	-0.209
642.98	-0.183
643.31	-0.215
643.64	-0.159
643.96	-0.126
644.29	-0.086
644.61	-0.103
644.94	-0.078
645.26	-0.040
645.59	-0.027
645.91	-0.061
646.24	-0.037
646.56	-0.037
646.89	0.031
647.22	0.008
647.54	-0.002
647.87	-0.003
648.19	0.008
648.52	0.013
648.84	-0.040
649.17	-0.060
649.49	-0.096
649.82	-0.113
650.14	-0.131
650.47	-0.156
650.79	-0.145
651.11	-0.170
651.44	-0.209
651.76	-0.168
652.09	-0.157
652.41	-0.108
652.74	-0.136
653.06	-0.157
653.39	-0.147
653.71	-0.110
654.04	-0.070
654.36	-0.064
654.68	-0.011
655.01	0.050
655.33	0.063
655.66	0.083
655.98	0.123
656.30	0.180
656.63	0.227
656.95	0.189
657.28	0.182
657.60	0.175
657.92	0.156
