OOIBase32 Version 2.0.0.6 Data File
++++++++++++++++++++++++++++++++++++
Date: 01-23-2012, 22:07:36
User: Valued Ocean Optics Customer
Spectrometer Serial Number: USB2E2917
Spectrometer Channel: Master
Integration Time (msec): 5
Spectra Averaged: 10
Boxcar Smoothing: 5
Correct for Electrical Dark: Enabled
Time Normalized: Disabled
Dual-beam Reference: Disabled
Reference Channel: Master
Temperature: Not acquired
Spectrometer Type: S2000
ADC Type: USB2000
Number of Pixels in File: 2048
Graph Title: 
>>>>>Begin Spectral Data<<<<<
180.30	0.000
180.67	0.000
181.03	121.565
181.40	-137.060
181.77	9288.200
182.14	48.007
182.51	67.710
182.88	-6977.436
183.25	12.842
183.62	48.496
183.99	-11.227
184.36	62.819
184.73	346.107
185.10	-123.641
185.46	-40.952
185.83	122.169
186.20	95.268
186.57	324.118
186.94	15.425
187.31	196.663
187.68	-176.632
188.05	-12.270
188.42	18.026
188.78	28.780
189.15	23.261
189.52	35.078
189.89	23.643
190.26	6.923
190.63	13.051
191.00	-7.175
191.37	3.391
191.73	8.402
192.10	3.569
192.47	-2.514
192.84	-7.752
193.21	-6.029
193.58	1.179
193.94	12.211
194.31	8.321
194.68	9.449
195.05	17.358
195.42	6.079
195.79	5.462
196.15	16.881
196.52	19.837
196.89	27.298
197.26	28.106
197.63	19.891
198.00	9.359
198.36	12.443
198.73	9.931
199.10	14.305
199.47	14.091
199.84	23.885
200.20	35.031
200.57	15.475
200.94	25.765
201.31	22.929
201.68	35.195
202.04	34.667
202.41	42.859
202.78	45.170
203.15	43.340
203.51	39.167
203.88	16.398
204.25	-1.671
204.62	15.503
204.98	3.288
205.35	5.010
205.72	6.084
206.09	10.125
206.46	10.878
206.82	7.342
207.19	0.817
207.56	4.116
207.92	-2.899
208.29	-3.257
208.66	-5.090
209.03	7.752
209.39	0.730
209.76	-5.950
210.13	-16.279
210.50	-29.803
210.86	-19.984
211.23	-5.627
211.60	-3.939
211.96	11.298
212.33	11.188
212.70	18.117
213.07	12.388
213.43	18.289
213.80	18.910
214.17	11.853
214.53	9.415
214.90	7.372
215.27	-1.822
215.63	-8.832
216.00	-15.724
216.37	-7.952
216.74	-17.100
217.10	-13.908
217.47	-22.341
217.84	-27.430
218.20	-5.062
218.57	7.460
218.94	7.592
219.30	13.415
219.67	21.410
220.04	17.448
220.40	14.755
220.77	6.979
221.13	1.020
221.50	-5.642
221.87	-7.607
222.23	-16.634
222.60	-20.234
222.97	-19.412
223.33	-21.516
223.70	-19.296
224.07	-13.696
224.43	-11.838
224.80	-3.961
225.16	-2.532
225.53	0.140
225.90	-3.028
226.26	-2.810
226.63	-3.111
226.99	-1.501
227.36	0.252
227.73	-0.391
228.09	-4.685
228.46	-6.027
228.82	-5.573
229.19	-5.430
229.56	-7.098
229.92	-4.895
230.29	-3.378
230.65	-2.920
231.02	-3.095
231.38	-4.053
231.75	-2.754
232.12	2.244
232.48	4.180
232.85	3.149
233.21	5.126
233.58	5.709
233.94	6.944
234.31	4.647
234.68	5.333
235.04	4.003
235.41	5.070
235.77	4.514
236.14	3.539
236.50	1.985
236.87	2.511
237.23	0.223
237.60	2.001
237.96	2.313
238.33	3.797
238.69	3.844
239.06	3.843
239.42	3.453
239.79	2.947
240.15	2.894
240.52	2.883
240.88	2.323
241.25	3.010
241.61	2.483
241.98	2.234
242.34	1.466
242.71	1.353
243.07	1.652
243.44	1.728
243.80	2.045
244.17	2.181
244.53	2.507
244.90	2.640
245.26	2.495
245.63	2.885
245.99	2.973
246.36	3.304
246.72	3.071
247.09	3.003
247.45	2.851
247.81	2.764
248.18	2.393
248.54	2.451
248.91	2.242
249.27	2.105
249.64	1.564
250.00	1.659
250.36	1.540
250.73	2.044
251.09	2.511
251.46	2.976
251.82	3.846
252.19	4.309
252.55	3.756
252.91	3.897
253.28	3.816
253.64	4.215
254.01	4.014
254.37	3.749
254.73	3.873
255.10	3.684
255.46	3.438
255.83	2.740
256.19	2.895
256.55	3.133
256.92	3.015
257.28	3.156
257.65	3.227
258.01	3.462
258.37	3.475
258.74	3.388
259.10	3.437
259.46	3.381
259.83	3.418
260.19	3.308
260.55	3.337
260.92	3.301
261.28	3.175
261.64	2.648
262.01	2.292
262.37	2.091
262.73	1.999
263.10	1.836
263.46	2.307
263.82	2.243
264.19	1.681
264.55	1.664
264.91	1.920
265.28	2.352
265.64	2.310
266.00	1.977
266.37	1.993
266.73	2.161
267.09	2.207
267.46	2.215
267.82	2.375
268.18	3.001
268.54	2.836
268.91	3.119
269.27	2.807
269.63	2.898
270.00	2.991
270.36	3.118
270.72	2.852
271.08	2.508
271.45	2.217
271.81	2.351
272.17	2.429
272.53	2.648
272.90	2.355
273.26	2.227
273.62	2.280
273.98	2.313
274.35	2.211
274.71	2.634
275.07	2.865
275.43	2.996
275.80	3.154
276.16	3.187
276.52	2.679
276.88	2.693
277.25	2.736
277.61	2.920
277.97	2.732
278.33	2.480
278.69	2.056
279.06	2.214
279.42	1.932
279.78	1.517
280.14	1.589
280.50	1.993
280.87	2.058
281.23	2.347
281.59	2.218
281.95	2.336
282.31	2.667
282.68	2.829
283.04	2.661
283.40	2.833
283.76	2.768
284.12	2.611
284.48	2.550
284.85	2.559
285.21	2.409
285.57	2.536
285.93	2.728
286.29	2.729
286.65	2.745
287.02	2.911
287.38	2.964
287.74	3.178
288.10	3.122
288.46	3.048
288.82	2.860
289.18	2.780
289.54	2.694
289.91	2.709
290.27	2.744
290.63	2.629
290.99	2.281
291.35	2.264
291.71	2.377
292.07	2.316
292.43	2.429
292.79	2.685
293.16	2.763
293.52	2.825
293.88	2.721
294.24	2.721
294.60	2.772
294.96	2.946
295.32	2.999
295.68	2.757
296.04	2.931
296.40	2.943
296.76	3.010
297.12	3.170
297.49	3.165
297.85	3.267
298.21	3.380
298.57	3.477
298.93	3.505
299.29	3.385
299.65	3.514
300.01	3.474
300.37	3.426
300.73	3.573
301.09	3.587
301.45	3.753
301.81	3.625
302.17	3.387
302.53	3.314
302.89	3.400
303.25	3.490
303.61	3.587
303.97	3.565
304.33	3.514
304.69	3.183
305.05	3.087
305.41	2.940
305.77	3.000
306.13	3.135
306.49	3.319
306.85	3.301
307.21	3.335
307.57	3.318
307.93	3.315
308.29	3.473
308.65	3.514
309.01	3.533
309.37	3.623
309.73	3.726
310.09	3.727
310.45	3.643
310.81	3.723
311.17	3.597
311.53	3.611
311.89	3.770
312.25	3.717
312.61	3.803
312.96	3.788
313.32	3.769
313.68	3.640
314.04	3.583
314.40	3.630
314.76	3.649
315.12	3.782
315.48	3.794
315.84	3.583
316.20	3.563
316.56	3.556
316.92	3.621
317.27	3.489
317.63	3.566
317.99	3.601
318.35	3.514
318.71	3.470
319.07	3.533
319.43	3.568
319.79	3.599
320.15	3.552
320.50	3.434
320.86	3.442
321.22	3.575
321.58	3.656
321.94	3.729
322.30	3.869
322.66	3.927
323.01	3.988
323.37	4.057
323.73	4.283
324.09	4.613
324.45	4.905
324.81	4.904
325.17	5.013
325.52	5.113
325.88	5.190
326.24	5.316
326.60	5.511
326.96	5.626
327.31	5.625
327.67	5.576
328.03	5.484
328.39	5.367
328.75	5.577
329.11	5.551
329.46	5.591
329.82	5.690
330.18	5.722
330.54	5.666
330.90	5.651
331.25	5.700
331.61	5.776
331.97	5.847
332.33	6.076
332.68	5.867
333.04	5.957
333.40	5.976
333.76	5.979
334.11	6.006
334.47	5.955
334.83	5.955
335.19	6.028
335.54	6.161
335.90	6.237
336.26	6.106
336.62	6.255
336.97	6.232
337.33	6.190
337.69	6.148
338.05	6.104
338.40	6.100
338.76	6.117
339.12	6.075
339.48	6.002
339.83	5.873
340.19	5.899
340.55	5.933
340.90	5.978
341.26	5.952
341.62	5.936
341.97	5.969
342.33	6.088
342.69	6.075
343.04	6.093
343.40	6.105
343.76	6.204
344.12	6.289
344.47	6.327
344.83	6.290
345.19	6.263
345.54	6.353
345.90	6.375
346.26	6.334
346.61	6.390
346.97	6.386
347.32	6.337
347.68	6.274
348.04	6.272
348.39	6.256
348.75	6.390
349.11	6.479
349.46	6.471
349.82	6.495
350.18	6.523
350.53	6.495
350.89	6.571
351.24	6.618
351.60	6.643
351.96	6.633
352.31	6.729
352.67	6.653
353.02	6.682
353.38	6.603
353.74	6.569
354.09	6.554
354.45	6.617
354.80	6.583
355.16	6.555
355.52	6.611
355.87	6.578
356.23	6.555
356.58	6.589
356.94	6.549
357.29	6.616
357.65	6.587
358.00	6.609
358.36	6.601
358.72	6.632
359.07	6.691
359.43	6.656
359.78	6.751
360.14	6.760
360.49	6.768
360.85	6.811
361.20	6.828
361.56	6.905
361.91	6.918
362.27	6.929
362.62	6.909
362.98	6.921
363.33	6.942
363.69	6.887
364.04	6.871
364.40	6.887
364.75	6.873
365.11	6.902
365.46	6.879
365.82	6.874
366.17	6.847
366.53	6.911
366.88	6.891
367.24	6.954
367.59	6.989
367.95	6.960
368.30	6.974
368.66	7.050
369.01	7.111
369.37	7.173
369.72	7.212
370.08	7.302
370.43	7.276
370.78	7.317
371.14	7.341
371.49	7.373
371.85	7.503
372.20	7.525
372.56	7.575
372.91	7.554
373.26	7.556
373.62	7.584
373.97	7.602
374.33	7.678
374.68	7.691
375.03	7.734
375.39	7.733
375.74	7.745
376.10	7.772
376.45	7.815
376.80	7.904
377.16	7.989
377.51	8.048
377.87	8.111
378.22	8.183
378.57	8.325
378.93	8.351
379.28	8.480
379.63	8.555
379.99	8.684
380.34	8.743
380.70	8.834
381.05	8.910
381.40	9.011
381.76	9.046
382.11	9.134
382.46	9.099
382.82	9.153
383.17	9.195
383.52	9.228
383.88	9.254
384.23	9.315
384.58	9.357
384.94	9.449
385.29	9.508
385.64	9.571
385.99	9.619
386.35	9.762
386.70	9.838
387.05	9.870
387.41	9.922
387.76	9.966
388.11	9.976
388.47	10.010
388.82	10.009
389.17	10.004
389.52	10.050
389.88	10.085
390.23	10.148
390.58	10.218
390.93	10.280
391.29	10.363
391.64	10.436
391.99	10.500
392.34	10.549
392.70	10.610
393.05	10.683
393.40	10.750
393.75	10.786
394.11	10.776
394.46	10.827
394.81	10.854
395.16	10.810
395.52	10.854
395.87	10.857
396.22	10.875
396.57	10.898
396.92	10.946
397.28	10.985
397.63	10.993
397.98	11.067
398.33	11.092
398.68	11.176
399.04	11.248
399.39	11.268
399.74	11.356
400.09	11.387
400.44	11.428
400.80	11.454
401.15	11.473
401.50	11.521
401.85	11.556
402.20	11.573
402.55	11.567
402.90	11.609
403.26	11.648
403.61	11.620
403.96	11.657
404.31	11.679
404.66	11.722
405.01	11.776
405.36	11.824
405.72	11.819
406.07	11.869
406.42	11.907
406.77	11.915
407.12	11.939
407.47	12.015
407.82	12.065
408.17	12.073
408.53	12.092
408.88	12.085
409.23	12.091
409.58	12.115
409.93	12.105
410.28	12.163
410.63	12.214
410.98	12.232
411.33	12.240
411.68	12.260
412.03	12.285
412.38	12.303
412.73	12.309
413.09	12.329
413.44	12.349
413.79	12.370
414.14	12.348
414.49	12.376
414.84	12.378
415.19	12.393
415.54	12.389
415.89	12.403
416.24	12.395
416.59	12.413
416.94	12.416
417.29	12.417
417.64	12.427
417.99	12.431
418.34	12.440
418.69	12.436
419.04	12.449
419.39	12.461
419.74	12.471
420.09	12.501
420.44	12.517
420.79	12.530
421.14	12.532
421.49	12.537
421.84	12.557
422.19	12.544
422.54	12.580
422.89	12.562
423.24	12.540
423.59	12.538
423.94	12.529
424.29	12.516
424.64	12.519
424.99	12.554
425.34	12.593
425.68	12.601
426.03	12.650
426.38	12.649
426.73	12.718
427.08	12.783
427.43	12.844
427.78	12.859
428.13	12.916
428.48	12.924
428.83	12.938
429.18	12.922
429.53	12.936
429.87	12.927
430.22	12.933
430.57	12.939
430.92	12.939
431.27	12.922
431.62	12.948
431.97	12.932
432.32	12.948
432.67	12.945
433.01	12.959
433.36	12.967
433.71	12.965
434.06	12.985
434.41	12.998
434.76	13.055
435.11	13.092
435.45	13.100
435.80	13.108
436.15	13.104
436.50	13.128
436.85	13.138
437.20	13.148
437.54	13.170
437.89	13.155
438.24	13.152
438.59	13.098
438.94	13.081
439.29	13.090
439.63	13.099
439.98	13.119
440.33	13.113
440.68	13.109
441.03	13.112
441.37	13.108
441.72	13.130
442.07	13.132
442.42	13.153
442.76	13.152
443.11	13.120
443.46	13.107
443.81	13.111
444.16	13.078
444.50	13.083
444.85	13.073
445.20	13.072
445.55	13.057
445.89	13.041
446.24	13.020
446.59	13.020
446.94	13.052
447.28	13.073
447.63	13.068
447.98	13.117
448.32	13.130
448.67	13.131
449.02	13.141
449.37	13.143
449.71	13.152
450.06	13.196
450.41	13.194
450.75	13.172
451.10	13.157
451.45	13.177
451.79	13.162
452.14	13.151
452.49	13.169
452.84	13.177
453.18	13.186
453.53	13.203
453.88	13.198
454.22	13.212
454.57	13.251
454.92	13.288
455.26	13.317
455.61	13.320
455.95	13.329
456.30	13.353
456.65	13.353
456.99	13.359
457.34	13.347
457.69	13.377
458.03	13.378
458.38	13.365
458.73	13.363
459.07	13.339
459.42	13.348
459.76	13.345
460.11	13.338
460.46	13.343
460.80	13.390
461.15	13.443
461.49	13.442
461.84	13.489
462.19	13.539
462.53	13.584
462.88	13.637
463.22	13.671
463.57	13.750
463.91	13.777
464.26	13.831
464.61	13.848
464.95	13.841
465.30	13.874
465.64	13.890
465.99	13.880
466.33	13.882
466.68	13.885
467.02	13.898
467.37	13.894
467.71	13.924
468.06	13.923
468.41	13.925
468.75	13.959
469.10	13.944
469.44	13.932
469.79	13.964
470.13	14.000
470.48	13.985
470.82	14.000
471.17	14.014
471.51	13.996
471.86	13.997
472.20	13.994
472.55	14.009
472.89	14.046
473.23	14.067
473.58	14.047
473.92	14.031
474.27	14.053
474.61	14.060
474.96	14.041
475.30	14.046
475.65	14.041
475.99	14.044
476.34	14.044
476.68	14.026
477.02	14.036
477.37	14.065
477.71	14.062
478.06	14.096
478.40	14.156
478.75	14.286
479.09	14.447
479.43	14.596
479.78	14.769
480.12	14.958
480.47	15.181
480.81	15.393
481.15	15.610
481.50	15.861
481.84	16.140
482.19	16.424
482.53	16.646
482.87	16.719
483.22	16.659
483.56	16.485
483.90	16.225
484.25	15.901
484.59	15.600
484.94	15.372
485.28	15.133
485.62	14.847
485.97	14.541
486.31	14.272
486.65	14.127
487.00	14.128
487.34	14.212
487.68	14.367
488.03	14.559
488.37	14.723
488.71	14.768
489.06	14.785
489.40	14.788
489.74	14.776
490.09	14.763
490.43	14.753
490.77	14.721
491.11	14.715
491.46	14.715
491.80	14.708
492.14	14.699
492.49	14.704
492.83	14.697
493.17	14.681
493.51	14.677
493.86	14.683
494.20	14.703
494.54	14.762
494.88	14.788
495.23	14.832
495.57	14.872
495.91	14.899
496.25	14.917
496.60	14.943
496.94	14.989
497.28	15.033
497.62	15.074
497.97	15.094
498.31	15.122
498.65	15.166
498.99	15.186
499.33	15.230
499.68	15.265
500.02	15.321
500.36	15.352
500.70	15.367
501.04	15.421
501.39	15.454
501.73	15.515
502.07	15.571
502.41	15.613
502.75	15.636
503.09	15.662
503.44	15.715
503.78	15.748
504.12	15.809
504.46	15.884
504.80	15.933
505.14	15.985
505.49	16.024
505.83	16.072
506.17	16.124
506.51	16.178
506.85	16.221
507.19	16.261
507.53	16.320
507.87	16.359
508.22	16.382
508.56	16.417
508.90	16.458
509.24	16.490
509.58	16.519
509.92	16.549
510.26	16.597
510.60	16.657
510.94	16.697
511.28	16.722
511.63	16.772
511.97	16.809
512.31	16.834
512.65	16.872
512.99	16.929
513.33	16.991
513.67	17.087
514.01	17.146
514.35	17.207
514.69	17.280
515.03	17.357
515.37	17.410
515.71	17.469
516.05	17.526
516.39	17.564
516.73	17.611
517.07	17.649
517.41	17.655
517.75	17.673
518.09	17.683
518.43	17.690
518.77	17.689
519.11	17.713
519.45	17.740
519.79	17.763
520.13	17.802
520.47	17.839
520.81	17.886
521.15	17.933
521.49	17.982
521.83	18.035
522.17	18.099
522.51	18.181
522.85	18.260
523.19	18.381
523.53	18.534
523.87	18.705
524.21	18.860
524.55	18.985
524.89	19.102
525.23	19.227
525.57	19.313
525.91	19.402
526.25	19.494
526.58	19.561
526.92	19.588
527.26	19.590
527.60	19.558
527.94	19.506
528.28	19.473
528.62	19.424
528.96	19.364
529.30	19.333
529.64	19.285
529.97	19.218
530.31	19.155
530.65	19.123
530.99	19.104
531.33	19.112
531.67	19.151
532.01	19.159
532.35	19.188
532.68	19.195
533.02	19.191
533.36	19.192
533.70	19.195
534.04	19.187
534.38	19.175
534.71	19.166
535.05	19.162
535.39	19.147
535.73	19.157
536.07	19.173
536.41	19.247
536.74	19.292
537.08	19.362
537.42	19.431
537.76	19.523
538.10	19.617
538.43	19.684
538.77	19.729
539.11	19.796
539.45	19.852
539.79	19.865
540.12	19.854
540.46	19.837
540.80	19.802
541.14	19.746
541.47	19.705
541.81	19.667
542.15	19.636
542.49	19.607
542.82	19.558
543.16	19.516
543.50	19.500
543.84	19.491
544.17	19.522
544.51	19.541
544.85	19.579
545.18	19.586
545.52	19.576
545.86	19.573
546.20	19.557
546.53	19.562
546.87	19.558
547.21	19.577
547.54	19.577
547.88	19.614
548.22	19.624
548.55	19.664
548.89	19.697
549.23	19.737
549.56	19.754
549.90	19.805
550.24	19.816
550.57	19.832
550.91	19.825
551.25	19.847
551.58	19.827
551.92	19.859
552.26	19.845
552.59	19.847
552.93	19.846
553.27	19.879
553.60	19.915
553.94	19.954
554.27	19.970
554.61	20.030
554.95	20.060
555.28	20.106
555.62	20.118
555.95	20.166
556.29	20.199
556.63	20.210
556.96	20.214
557.30	20.219
557.63	20.230
557.97	20.242
558.31	20.252
558.64	20.284
558.98	20.280
559.31	20.298
559.65	20.299
559.98	20.288
560.32	20.305
560.65	20.302
560.99	20.297
561.33	20.299
561.66	20.304
562.00	20.315
562.33	20.297
562.67	20.285
563.00	20.297
563.34	20.303
563.67	20.322
564.01	20.348
564.34	20.350
564.68	20.354
565.01	20.338
565.35	20.330
565.68	20.318
566.02	20.326
566.35	20.351
566.69	20.338
567.02	20.349
567.36	20.354
567.69	20.341
568.03	20.385
568.36	20.392
568.69	20.374
569.03	20.412
569.36	20.405
569.70	20.410
570.03	20.392
570.37	20.416
570.70	20.420
571.04	20.419
571.37	20.428
571.70	20.424
572.04	20.434
572.37	20.476
572.71	20.463
573.04	20.481
573.37	20.469
573.71	20.497
574.04	20.512
574.38	20.501
574.71	20.504
575.04	20.518
575.38	20.508
575.71	20.499
576.05	20.524
576.38	20.550
576.71	20.564
577.05	20.590
577.38	20.591
577.71	20.599
578.05	20.621
578.38	20.659
578.71	20.684
579.05	20.689
579.38	20.716
579.71	20.704
580.05	20.704
580.38	20.721
580.71	20.732
581.05	20.722
581.38	20.717
581.71	20.727
582.05	20.724
582.38	20.706
582.71	20.694
583.04	20.665
583.38	20.675
583.71	20.646
584.04	20.635
584.38	20.651
584.71	20.678
585.04	20.657
585.37	20.635
585.71	20.616
586.04	20.611
586.37	20.647
586.70	20.647
587.04	20.625
587.37	20.632
587.70	20.618
588.03	20.594
588.37	20.573
588.70	20.572
589.03	20.593
589.36	20.580
589.69	20.560
590.03	20.523
590.36	20.509
590.69	20.523
591.02	20.494
591.35	20.491
591.69	20.485
592.02	20.467
592.35	20.443
592.68	20.441
593.01	20.441
593.35	20.442
593.68	20.438
594.01	20.435
594.34	20.410
594.67	20.421
595.00	20.396
595.34	20.333
595.67	20.311
596.00	20.298
596.33	20.248
596.66	20.210
596.99	20.192
597.32	20.168
597.65	20.162
597.99	20.123
598.32	20.066
598.65	20.056
598.98	20.085
599.31	20.096
599.64	20.073
599.97	20.066
600.30	20.040
600.63	20.041
600.96	20.010
601.30	19.990
601.63	19.984
601.96	19.986
602.29	19.953
602.62	19.942
602.95	19.920
603.28	19.896
603.61	19.858
603.94	19.837
604.27	19.766
604.60	19.748
604.93	19.714
605.26	19.692
605.59	19.688
605.92	19.656
606.25	19.615
606.58	19.617
606.91	19.587
607.24	19.603
607.57	19.582
607.90	19.591
608.23	19.573
608.56	19.550
608.89	19.514
609.22	19.474
609.55	19.469
609.88	19.423
610.21	19.349
610.54	19.354
610.87	19.306
611.20	19.299
611.53	19.280
611.86	19.255
612.19	19.268
612.52	19.261
612.85	19.239
613.18	19.195
613.51	19.186
613.84	19.169
614.17	19.146
614.49	19.105
614.82	19.068
615.15	19.018
615.48	18.984
615.81	18.906
616.14	18.859
616.47	18.863
616.80	18.833
617.13	18.833
617.46	18.789
617.78	18.755
618.11	18.732
618.44	18.724
618.77	18.688
619.10	18.658
619.43	18.662
619.76	18.648
620.09	18.606
620.41	18.592
620.74	18.559
621.07	18.551
621.40	18.512
621.73	18.518
622.06	18.484
622.38	18.478
622.71	18.453
623.04	18.416
623.37	18.425
623.70	18.414
624.02	18.377
624.35	18.344
624.68	18.328
625.01	18.306
625.34	18.291
625.66	18.278
625.99	18.280
626.32	18.269
626.65	18.271
626.98	18.200
627.30	18.166
627.63	18.189
627.96	18.179
628.29	18.132
628.61	18.094
628.94	18.014
629.27	17.961
629.60	17.927
629.92	17.848
630.25	17.822
630.58	17.792
630.91	17.742
631.23	17.683
631.56	17.651
631.89	17.661
632.21	17.635
632.54	17.603
632.87	17.610
633.19	17.549
633.52	17.574
633.85	17.536
634.18	17.526
634.50	17.504
634.83	17.490
635.16	17.469
635.48	17.428
635.81	17.403
636.14	17.401
636.46	17.330
636.79	17.301
637.11	17.292
637.44	17.269
637.77	17.251
638.09	17.181
638.42	17.121
638.75	17.095
639.07	17.039
639.40	17.000
639.73	16.962
640.05	17.010
640.38	17.001
640.70	16.931
641.03	16.867
641.36	16.847
641.68	16.882
642.01	16.842
642.33	16.800
642.66	16.815
