OOIBase32 Version 2.0.0.6 Data File
++++++++++++++++++++++++++++++++++++
Date: 01-23-2012, 22:07:31
User: Valued Ocean Optics Customer
Spectrometer Serial Number: USB2E2917
Spectrometer Channel: Master
Integration Time (msec): 5
Spectra Averaged: 10
Boxcar Smoothing: 5
Correct for Electrical Dark: Enabled
Time Normalized: Disabled
Dual-beam Reference: Disabled
Reference Channel: Master
Temperature: Not acquired
Spectrometer Type: S2000
ADC Type: USB2000
Number of Pixels in File: 2048
Graph Title: 
>>>>>Begin Spectral Data<<<<<
180.30	0.000
180.67	0.000
181.03	113.400
181.40	-200.234
181.77	5410.400
182.14	27.667
182.51	145.223
182.88	1180.085
183.25	-41.296
183.62	82.267
183.99	62.477
184.36	-35.005
184.73	-54.228
185.10	-64.362
185.46	92.964
185.83	131.381
186.20	-102.812
186.57	405.750
186.94	110.385
187.31	154.769
187.68	159.824
188.05	-19.009
188.42	-11.949
188.78	-0.402
189.15	1.547
189.52	2.266
189.89	10.815
190.26	-3.751
190.63	-0.928
191.00	-7.448
191.37	2.339
191.73	0.390
192.10	2.461
192.47	-12.249
192.84	-7.054
193.21	-5.688
193.58	-2.523
193.94	-6.025
194.31	-7.268
194.68	-2.995
195.05	-13.617
195.42	-32.946
195.79	-31.182
196.15	-18.812
196.52	-11.886
196.89	-26.207
197.26	-21.175
197.63	-26.727
198.00	-28.002
198.36	-21.961
198.73	-25.748
199.10	-16.203
199.47	-2.259
199.84	-7.018
200.20	-3.088
200.57	-18.989
200.94	-12.895
201.31	-14.011
201.68	4.369
202.04	10.231
202.41	23.016
202.78	31.709
203.15	35.478
203.51	21.442
203.88	19.052
204.25	9.029
204.62	19.504
204.98	16.769
205.35	21.357
205.72	27.773
206.09	22.255
206.46	23.767
206.82	16.129
207.19	0.516
207.56	4.313
207.92	-0.985
208.29	-0.172
208.66	-4.636
209.03	11.346
209.39	6.846
209.76	-1.559
210.13	1.964
210.50	-12.992
210.86	-13.110
211.23	18.125
211.60	23.536
211.96	32.087
212.33	27.479
212.70	36.167
213.07	20.958
213.43	14.723
213.80	9.518
214.17	2.216
214.53	8.826
214.90	9.615
215.27	-7.042
215.63	-12.199
216.00	-23.532
216.37	-15.514
216.74	-34.953
217.10	-34.425
217.47	-39.625
217.84	-39.033
218.20	-23.532
218.57	-20.774
218.94	-26.444
219.30	-19.631
219.67	-20.511
220.04	-13.688
220.40	-22.293
220.77	-30.222
221.13	-29.829
221.50	-31.382
221.87	-25.885
222.23	-21.300
222.60	-15.528
222.97	-11.171
223.33	-17.667
223.70	-17.733
224.07	-12.585
224.43	-6.330
224.80	-0.578
225.16	1.340
225.53	5.682
225.90	0.483
226.26	-2.737
226.63	-5.560
226.99	-4.979
227.36	-4.749
227.73	-3.680
228.09	-5.660
228.46	-5.864
228.82	-4.138
229.19	-2.550
229.56	-5.824
229.92	-1.770
230.29	0.079
230.65	-0.245
231.02	-1.282
231.38	-1.638
231.75	-1.643
232.12	-1.531
232.48	-0.661
232.85	-1.882
233.21	-2.619
233.58	-0.555
233.94	0.787
234.31	-0.242
234.68	-0.958
235.04	-1.472
235.41	-0.812
235.77	-0.691
236.14	-0.291
236.50	-1.927
236.87	-1.536
237.23	-2.750
237.60	-1.579
237.96	-2.458
238.33	-1.289
238.69	-0.068
239.06	0.734
239.42	0.977
239.79	1.354
240.15	2.015
240.52	2.186
240.88	2.378
241.25	3.020
241.61	2.713
241.98	3.069
242.34	2.514
242.71	2.804
243.07	2.870
243.44	2.969
243.80	3.008
244.17	2.885
244.53	3.009
244.90	2.869
245.26	2.786
245.63	2.922
245.99	2.744
246.36	3.120
246.72	2.473
247.09	2.501
247.45	2.319
247.81	1.974
248.18	1.570
248.54	1.773
248.91	1.535
249.27	1.831
249.64	1.782
250.00	1.925
250.36	1.580
250.73	2.177
251.09	2.245
251.46	2.568
251.82	3.168
252.19	3.966
252.55	3.442
252.91	3.624
253.28	3.031
253.64	2.520
254.01	2.343
254.37	2.008
254.73	2.187
255.10	2.466
255.46	2.607
255.83	2.262
256.19	2.081
256.55	2.081
256.92	1.958
257.28	2.269
257.65	2.690
258.01	3.006
258.37	2.914
258.74	2.767
259.10	2.599
259.46	2.646
259.83	2.735
260.19	2.675
260.55	2.690
260.92	2.850
261.28	2.557
261.64	2.076
262.01	1.689
262.37	1.876
262.73	1.533
263.10	1.353
263.46	1.183
263.82	1.031
264.19	0.816
264.55	0.982
264.91	1.022
265.28	1.135
265.64	1.124
266.00	0.589
266.37	0.387
266.73	0.935
267.09	1.249
267.46	1.182
267.82	1.138
268.18	1.313
268.54	1.073
268.91	1.206
269.27	1.358
269.63	1.463
270.00	1.924
270.36	2.011
270.72	1.875
271.08	1.458
271.45	1.389
271.81	1.850
272.17	1.880
272.53	1.873
272.90	1.612
273.26	1.535
273.62	1.202
273.98	0.925
274.35	0.954
274.71	1.289
275.07	1.881
275.43	2.132
275.80	1.907
276.16	2.496
276.52	2.517
276.88	2.627
277.25	2.689
277.61	3.117
277.97	3.119
278.33	2.870
278.69	2.535
279.06	2.641
279.42	2.408
279.78	2.079
280.14	1.669
280.50	1.997
280.87	2.065
281.23	2.262
281.59	2.085
281.95	2.246
282.31	2.551
282.68	2.723
283.04	2.561
283.40	2.618
283.76	2.699
284.12	2.668
284.48	2.583
284.85	2.562
285.21	2.306
285.57	2.512
285.93	2.589
286.29	2.523
286.65	2.330
287.02	2.251
287.38	2.386
287.74	2.609
288.10	2.568
288.46	2.439
288.82	2.296
289.18	2.355
289.54	2.158
289.91	2.193
290.27	2.316
290.63	2.317
290.99	2.175
291.35	2.102
291.71	2.199
292.07	2.217
292.43	2.216
292.79	2.542
293.16	2.511
293.52	2.643
293.88	2.664
294.24	2.715
294.60	2.735
294.96	2.785
295.32	2.781
295.68	2.516
296.04	2.688
296.40	2.684
296.76	2.521
297.12	2.566
297.49	2.377
297.85	2.399
298.21	2.334
298.57	2.429
298.93	2.450
299.29	2.382
299.65	2.470
300.01	2.380
300.37	2.396
300.73	2.561
301.09	2.514
301.45	2.727
301.81	2.551
302.17	2.426
302.53	2.478
302.89	2.516
303.25	2.453
303.61	2.552
303.97	2.469
304.33	2.472
304.69	2.303
305.05	2.231
305.41	2.198
305.77	2.306
306.13	2.364
306.49	2.483
306.85	2.431
307.21	2.561
307.57	2.505
307.93	2.543
308.29	2.612
308.65	2.487
309.01	2.621
309.37	2.817
309.73	2.868
310.09	2.877
310.45	2.819
310.81	2.935
311.17	2.745
311.53	2.734
311.89	2.773
312.25	2.760
312.61	2.984
312.96	2.974
313.32	2.719
313.68	2.561
314.04	2.553
314.40	2.377
314.76	2.341
315.12	2.640
315.48	2.750
315.84	2.623
316.20	2.622
316.56	2.526
316.92	2.491
317.27	2.440
317.63	2.492
317.99	2.521
318.35	2.432
318.71	2.433
319.07	2.288
319.43	2.265
319.79	2.336
320.15	2.267
320.50	2.175
320.86	2.313
321.22	2.431
321.58	2.442
321.94	2.329
322.30	2.476
322.66	2.492
323.01	2.568
323.37	2.460
323.73	2.442
324.09	2.506
324.45	2.591
324.81	2.386
325.17	2.274
325.52	2.284
325.88	2.369
326.24	2.391
326.60	2.406
326.96	2.447
327.31	2.521
327.67	2.555
328.03	2.641
328.39	2.681
328.75	2.850
329.11	2.919
329.46	2.860
329.82	2.876
330.18	2.916
330.54	2.886
330.90	2.840
331.25	2.755
331.61	2.767
331.97	2.656
332.33	2.759
332.68	2.689
333.04	2.713
333.40	2.826
333.76	2.834
334.11	2.718
334.47	2.669
334.83	2.607
335.19	2.762
335.54	2.821
335.90	2.916
336.26	2.767
336.62	2.772
336.97	2.718
337.33	2.563
337.69	2.508
338.05	2.620
338.40	2.669
338.76	2.721
339.12	2.692
339.48	2.688
339.83	2.668
340.19	2.708
340.55	2.721
340.90	2.723
341.26	2.758
341.62	2.804
341.97	2.805
342.33	2.845
342.69	2.798
343.04	2.680
343.40	2.668
343.76	2.674
344.12	2.734
344.47	2.838
344.83	2.863
345.19	2.901
345.54	2.936
345.90	2.957
346.26	2.889
346.61	2.980
346.97	3.029
347.32	3.023
347.68	2.927
348.04	2.938
348.39	2.927
348.75	3.007
349.11	2.982
349.46	2.906
349.82	2.862
350.18	2.919
350.53	2.826
350.89	2.815
351.24	2.783
351.60	2.830
351.96	2.839
352.31	2.802
352.67	2.726
353.02	2.810
353.38	2.787
353.74	2.743
354.09	2.691
354.45	2.759
354.80	2.749
355.16	2.751
355.52	2.765
355.87	2.677
356.23	2.661
356.58	2.762
356.94	2.683
357.29	2.733
357.65	2.750
358.00	2.754
358.36	2.748
358.72	2.811
359.07	2.829
359.43	2.851
359.78	2.948
360.14	2.947
360.49	2.888
360.85	2.863
361.20	2.939
361.56	2.976
361.91	2.964
362.27	2.966
362.62	2.939
362.98	2.893
363.33	2.830
363.69	2.755
364.04	2.729
364.40	2.717
364.75	2.769
365.11	2.732
365.46	2.759
365.82	2.803
366.17	2.768
366.53	2.798
366.88	2.832
367.24	2.914
367.59	2.961
367.95	3.020
368.30	3.028
368.66	3.066
369.01	3.048
369.37	3.079
369.72	3.057
370.08	3.089
370.43	3.064
370.78	3.050
371.14	3.032
371.49	3.056
371.85	3.031
372.20	3.071
372.56	3.116
372.91	3.116
373.26	3.078
373.62	3.080
373.97	3.080
374.33	3.097
374.68	3.133
375.03	3.194
375.39	3.135
375.74	3.156
376.10	3.139
376.45	3.128
376.80	3.160
377.16	3.158
377.51	3.206
377.87	3.200
378.22	3.210
378.57	3.268
378.93	3.234
379.28	3.303
379.63	3.328
379.99	3.385
380.34	3.407
380.70	3.447
381.05	3.508
381.40	3.554
381.76	3.573
382.11	3.631
382.46	3.586
382.82	3.628
383.17	3.641
383.52	3.648
383.88	3.623
384.23	3.617
384.58	3.585
384.94	3.567
385.29	3.569
385.64	3.636
385.99	3.624
386.35	3.723
386.70	3.709
387.05	3.729
387.41	3.739
387.76	3.747
388.11	3.758
388.47	3.799
388.82	3.813
389.17	3.798
389.52	3.778
389.88	3.804
390.23	3.796
390.58	3.853
390.93	3.863
391.29	3.902
391.64	3.947
391.99	3.934
392.34	3.922
392.70	3.939
393.05	3.959
393.40	3.976
393.75	3.991
394.11	3.978
394.46	3.966
394.81	3.947
395.16	3.900
395.52	3.885
395.87	3.906
396.22	3.913
396.57	3.923
396.92	3.907
397.28	3.950
397.63	3.946
397.98	3.969
398.33	3.981
398.68	3.996
399.04	4.034
399.39	4.033
399.74	4.031
400.09	4.054
400.44	4.057
400.80	4.063
401.15	4.032
401.50	4.011
401.85	4.027
402.20	4.015
402.55	4.070
402.90	4.062
403.26	4.099
403.61	4.105
403.96	4.095
404.31	4.112
404.66	4.136
405.01	4.151
405.36	4.194
405.72	4.178
406.07	4.219
406.42	4.186
406.77	4.210
407.12	4.203
407.47	4.258
407.82	4.289
408.17	4.268
408.53	4.302
408.88	4.348
409.23	4.339
409.58	4.330
409.93	4.283
410.28	4.316
410.63	4.334
410.98	4.358
411.33	4.330
411.68	4.319
412.03	4.338
412.38	4.349
412.73	4.302
413.09	4.322
413.44	4.338
413.79	4.380
414.14	4.349
414.49	4.350
414.84	4.336
415.19	4.352
415.54	4.369
415.89	4.370
416.24	4.339
416.59	4.348
416.94	4.334
417.29	4.326
417.64	4.309
417.99	4.320
418.34	4.302
418.69	4.307
419.04	4.280
419.39	4.269
419.74	4.267
420.09	4.276
420.44	4.269
420.79	4.264
421.14	4.239
421.49	4.232
421.84	4.233
422.19	4.254
422.54	4.253
422.89	4.261
423.24	4.254
423.59	4.246
423.94	4.240
424.29	4.238
424.64	4.220
424.99	4.250
425.34	4.259
425.68	4.238
426.03	4.217
426.38	4.200
426.73	4.200
427.08	4.218
427.43	4.218
427.78	4.206
428.13	4.213
428.48	4.249
428.83	4.257
429.18	4.253
429.53	4.267
429.87	4.252
430.22	4.237
430.57	4.248
430.92	4.228
431.27	4.227
431.62	4.228
431.97	4.211
432.32	4.192
432.67	4.179
433.01	4.167
433.36	4.162
433.71	4.168
434.06	4.186
434.41	4.190
434.76	4.215
435.11	4.208
435.45	4.196
435.80	4.209
436.15	4.213
436.50	4.224
436.85	4.229
437.20	4.215
437.54	4.221
437.89	4.209
438.24	4.205
438.59	4.187
438.94	4.203
439.29	4.216
439.63	4.210
439.98	4.213
440.33	4.205
440.68	4.203
441.03	4.209
441.37	4.189
441.72	4.195
442.07	4.189
442.42	4.188
442.76	4.167
443.11	4.156
443.46	4.156
443.81	4.162
444.16	4.158
444.50	4.149
444.85	4.155
445.20	4.158
445.55	4.143
445.89	4.120
446.24	4.100
446.59	4.110
446.94	4.103
447.28	4.088
447.63	4.055
447.98	4.046
448.32	4.060
448.67	4.030
449.02	4.023
449.37	4.032
449.71	4.026
450.06	4.021
450.41	4.007
450.75	4.018
451.10	3.993
451.45	4.000
451.79	3.968
452.14	3.938
452.49	3.949
452.84	3.937
453.18	3.897
453.53	3.906
453.88	3.915
454.22	3.908
454.57	3.898
454.92	3.927
455.26	3.923
455.61	3.947
455.95	3.970
456.30	3.980
456.65	3.994
456.99	4.029
457.34	4.038
457.69	4.057
458.03	4.073
458.38	4.088
458.73	4.105
459.07	4.135
459.42	4.151
459.76	4.133
460.11	4.132
460.46	4.135
460.80	4.153
461.15	4.165
461.49	4.139
461.84	4.143
462.19	4.143
462.53	4.148
462.88	4.134
463.22	4.132
463.57	4.186
463.91	4.221
464.26	4.247
464.61	4.245
464.95	4.274
465.30	4.311
465.64	4.314
465.99	4.340
466.33	4.342
466.68	4.376
467.02	4.415
467.37	4.428
467.71	4.437
468.06	4.452
468.41	4.476
468.75	4.474
469.10	4.479
469.44	4.491
469.79	4.493
470.13	4.507
470.48	4.479
470.82	4.469
471.17	4.464
471.51	4.455
471.86	4.438
472.20	4.420
472.55	4.440
472.89	4.450
473.23	4.454
473.58	4.458
473.92	4.458
474.27	4.484
474.61	4.476
474.96	4.479
475.30	4.461
475.65	4.463
475.99	4.468
476.34	4.466
476.68	4.461
477.02	4.471
477.37	4.475
477.71	4.496
478.06	4.512
478.40	4.559
478.75	4.625
479.09	4.698
479.43	4.779
479.78	4.877
480.12	4.953
480.47	5.061
480.81	5.152
481.15	5.251
481.50	5.349
481.84	5.465
482.19	5.579
482.53	5.673
482.87	5.733
483.22	5.734
483.56	5.675
483.90	5.603
484.25	5.497
484.59	5.404
484.94	5.330
485.28	5.253
485.62	5.160
485.97	5.059
486.31	4.970
486.65	4.922
487.00	4.925
487.34	4.969
487.68	5.027
488.03	5.098
488.37	5.164
488.71	5.184
489.06	5.205
489.40	5.214
489.74	5.214
490.09	5.220
490.43	5.217
490.77	5.211
491.11	5.210
491.46	5.230
491.80	5.248
492.14	5.247
492.49	5.278
492.83	5.292
493.17	5.296
493.51	5.327
493.86	5.365
494.20	5.408
494.54	5.454
494.88	5.511
495.23	5.539
495.57	5.591
495.91	5.663
496.25	5.706
496.60	5.757
496.94	5.839
497.28	5.911
497.62	5.977
497.97	6.055
498.31	6.134
498.65	6.200
498.99	6.308
499.33	6.388
499.68	6.461
500.02	6.552
500.36	6.649
500.70	6.728
501.04	6.830
501.39	6.924
501.73	7.044
502.07	7.172
502.41	7.310
502.75	7.425
503.09	7.556
503.44	7.700
503.78	7.840
504.12	7.991
504.46	8.165
504.80	8.317
505.14	8.468
505.49	8.596
505.83	8.751
506.17	8.910
506.51	9.056
506.85	9.195
507.19	9.355
507.53	9.507
507.87	9.673
508.22	9.835
508.56	9.981
508.90	10.143
509.24	10.305
509.58	10.461
509.92	10.620
510.26	10.784
510.60	10.965
510.94	11.138
511.28	11.312
511.63	11.473
511.97	11.633
512.31	11.812
512.65	12.011
512.99	12.217
513.33	12.417
513.67	12.631
514.01	12.851
514.35	13.060
514.69	13.252
515.03	13.444
515.37	13.619
515.71	13.794
516.05	13.949
516.39	14.088
516.73	14.220
517.07	14.361
517.41	14.480
517.75	14.595
518.09	14.719
518.43	14.837
518.77	14.972
519.11	15.118
519.45	15.257
519.79	15.409
520.13	15.568
520.47	15.749
520.81	15.910
521.15	16.075
521.49	16.261
521.83	16.416
522.17	16.580
522.51	16.746
522.85	16.907
523.19	17.097
523.53	17.357
523.87	17.606
524.21	17.850
524.55	18.066
524.89	18.270
525.23	18.465
525.57	18.643
525.91	18.797
526.25	18.945
526.58	19.076
526.92	19.179
527.26	19.239
527.60	19.288
527.94	19.307
528.28	19.353
528.62	19.391
528.96	19.420
529.30	19.448
529.64	19.478
529.97	19.490
530.31	19.511
530.65	19.561
530.99	19.625
531.33	19.681
531.67	19.778
532.01	19.842
532.35	19.895
532.68	19.916
533.02	19.962
533.36	20.018
533.70	20.069
534.04	20.113
534.38	20.154
534.71	20.202
535.05	20.280
535.39	20.330
535.73	20.381
536.07	20.468
536.41	20.610
536.74	20.718
537.08	20.828
537.42	20.946
537.76	21.082
538.10	21.205
538.43	21.305
538.77	21.373
539.11	21.463
539.45	21.540
539.79	21.593
540.12	21.612
540.46	21.636
540.80	21.640
541.14	21.640
541.47	21.649
541.81	21.643
542.15	21.660
542.49	21.673
542.82	21.655
543.16	21.665
543.50	21.700
543.84	21.737
544.17	21.781
544.51	21.829
544.85	21.894
545.18	21.914
545.52	21.953
545.86	21.965
546.20	22.002
546.53	22.052
546.87	22.091
547.21	22.087
547.54	22.119
547.88	22.155
548.22	22.200
548.55	22.228
548.89	22.285
549.23	22.324
549.56	22.358
549.90	22.416
550.24	22.469
550.57	22.524
550.91	22.570
551.25	22.586
551.58	22.607
551.92	22.656
552.26	22.685
552.59	22.711
552.93	22.736
553.27	22.804
553.60	22.832
553.94	22.876
554.27	22.868
554.61	22.900
554.95	22.980
555.28	23.021
555.62	23.049
555.95	23.073
556.29	23.123
556.63	23.151
556.96	23.151
557.30	23.177
557.63	23.169
557.97	23.229
558.31	23.259
558.64	23.284
558.98	23.301
559.31	23.303
559.65	23.331
559.98	23.318
560.32	23.345
560.65	23.340
560.99	23.373
561.33	23.409
561.66	23.407
562.00	23.438
562.33	23.431
562.67	23.458
563.00	23.491
563.34	23.516
563.67	23.546
564.01	23.556
564.34	23.569
564.68	23.535
565.01	23.520
565.35	23.529
565.68	23.523
566.02	23.538
566.35	23.551
566.69	23.541
567.02	23.537
567.36	23.550
567.69	23.560
568.03	23.595
568.36	23.615
568.69	23.629
569.03	23.630
569.36	23.661
569.70	23.660
570.03	23.668
570.37	23.697
570.70	23.716
571.04	23.727
571.37	23.735
571.70	23.741
572.04	23.754
572.37	23.778
572.71	23.797
573.04	23.787
573.37	23.795
573.71	23.776
574.04	23.765
574.38	23.755
574.71	23.779
575.04	23.818
575.38	23.819
575.71	23.836
576.05	23.821
576.38	23.811
576.71	23.809
577.05	23.793
577.38	23.847
577.71	23.833
578.05	23.843
578.38	23.808
578.71	23.775
579.05	23.777
579.38	23.793
579.71	23.808
580.05	23.819
580.38	23.825
580.71	23.835
581.05	23.796
581.38	23.835
581.71	23.850
582.05	23.832
582.38	23.828
582.71	23.828
583.04	23.794
583.38	23.783
583.71	23.768
584.04	23.772
584.38	23.768
584.71	23.736
585.04	23.711
585.37	23.692
585.71	23.695
586.04	23.678
586.37	23.622
586.70	23.628
587.04	23.598
587.37	23.583
587.70	23.532
588.03	23.502
588.37	23.507
588.70	23.503
589.03	23.451
589.36	23.437
589.69	23.402
590.03	23.384
590.36	23.334
590.69	23.316
591.02	23.334
591.35	23.312
591.69	23.287
592.02	23.220
592.35	23.134
592.68	23.131
593.01	23.113
593.35	23.099
593.68	23.092
594.01	23.040
594.34	23.023
594.67	22.959
595.00	22.943
595.34	22.906
595.67	22.890
596.00	22.896
596.33	22.860
596.66	22.840
596.99	22.800
597.32	22.792
597.65	22.828
597.99	22.794
598.32	22.749
598.65	22.723
598.98	22.697
599.31	22.661
599.64	22.655
599.97	22.627
600.30	22.542
600.63	22.517
600.96	22.478
601.30	22.410
601.63	22.352
601.96	22.354
602.29	22.327
602.62	22.311
602.95	22.299
603.28	22.218
603.61	22.185
603.94	22.187
604.27	22.158
604.60	22.114
604.93	22.095
605.26	22.102
605.59	22.050
605.92	21.981
606.25	21.942
606.58	21.910
606.91	21.921
607.24	21.901
607.57	21.864
607.90	21.835
608.23	21.801
608.56	21.789
608.89	21.744
609.22	21.705
609.55	21.706
609.88	21.644
610.21	21.586
610.54	21.533
610.87	21.470
611.20	21.446
611.53	21.405
611.86	21.370
612.19	21.305
612.52	21.268
612.85	21.235
613.18	21.191
613.51	21.159
613.84	21.148
614.17	21.150
614.49	21.130
614.82	21.053
615.15	21.019
615.48	21.010
615.81	20.979
616.14	20.936
616.47	20.952
616.80	20.945
617.13	20.917
617.46	20.891
617.78	20.782
618.11	20.732
618.44	20.716
618.77	20.688
619.10	20.637
619.43	20.612
619.76	20.578
620.09	20.504
620.41	20.469
620.74	20.505
621.07	20.487
621.40	20.490
621.73	20.479
622.06	20.453
622.38	20.417
622.71	20.403
623.04	20.357
623.37	20.353
623.70	20.373
624.02	20.343
624.35	20.306
624.68	20.275
625.01	20.276
625.34	20.293
625.66	20.302
625.99	20.315
626.32	20.294
626.65	20.294
626.98	20.273
627.30	20.248
627.63	20.223
627.96	20.171
628.29	20.124
628.61	20.094
628.94	20.033
629.27	20.014
629.60	20.004
629.92	19.974
630.25	19.973
630.58	19.934
630.91	19.855
631.23	19.824
631.56	19.836
631.89	19.882
632.21	19.868
632.54	19.844
632.87	19.780
633.19	19.725
633.52	19.702
633.85	19.689
634.18	19.670
634.50	19.700
634.83	19.676
635.16	19.647
635.48	19.550
635.81	19.480
636.14	19.498
636.46	19.481
636.79	19.472
637.11	19.472
637.44	19.432
637.77	19.393
638.09	19.336
638.42	19.313
638.75	19.270
639.07	19.275
639.40	19.293
639.73	19.269
640.05	19.278
640.38	19.248
640.70	19.215
641.03	19.182
641.36	19.145
641.68	19.124
642.01	19.132
642.33	19.129
642.66	19.121
642.98	19.129
643.31	19.077
643.64	19.029
643.96	18.998
644.29	18.965
644.61	18.941
644.94	18.947
645.26	18.943
645.59	18.928
645.91	18.954
646.24	18.957
646.56	18.921
646.89	18.894
647.22	18.890
647.54	18.851
647.87	18.799
648.19	18.755
648.52	18.799
648.84	18.779
