OOIBase32 Version 2.0.0.6 Data File
++++++++++++++++++++++++++++++++++++
Date: 01-19-2012, 14:28:46
User: Valued Ocean Optics Customer
Spectrometer Serial Number: USB2E2917
Spectrometer Channel: Master
Integration Time (msec): 5
Spectra Averaged: 10
Boxcar Smoothing: 5
Correct for Electrical Dark: Enabled
Time Normalized: Disabled
Dual-beam Reference: Disabled
Reference Channel: Master
Temperature: Not acquired
Spectrometer Type: S2000
ADC Type: USB2000
Number of Pixels in File: 2048
Graph Title: 
>>>>>Begin Spectral Data<<<<<
180.30	0.000
180.67	0.000
181.03	-14.124
181.40	-141.925
181.77	151.831
182.14	-170.652
182.51	-384.562
182.88	42.015
183.25	-266.962
183.62	64.409
183.99	42.618
184.36	584.505
184.73	306.785
185.10	81.963
185.46	76.379
185.83	63.388
186.20	149.340
186.57	149.680
186.94	-100.569
187.31	46.470
187.68	66.897
188.05	-172.951
188.42	-411.499
188.78	240.820
189.15	39.929
189.52	30.622
189.89	7.051
190.26	12.535
190.63	-20.367
191.00	-15.420
191.37	-8.599
191.73	-19.138
192.10	-17.532
192.47	3.324
192.84	-4.873
193.21	6.775
193.58	2.113
193.94	23.403
194.31	28.249
194.68	29.360
195.05	22.445
195.42	32.317
195.79	34.231
196.15	39.633
196.52	35.048
196.89	36.781
197.26	35.061
197.63	39.971
198.00	27.662
198.36	27.766
198.73	35.369
199.10	45.250
199.47	44.171
199.84	36.614
200.20	37.337
200.57	30.808
200.94	22.790
201.31	22.328
201.68	14.284
202.04	13.798
202.41	16.401
202.78	18.321
203.15	18.899
203.51	8.423
203.88	15.351
204.25	-5.926
204.62	-16.149
204.98	-31.026
205.35	-51.866
205.72	-39.023
206.09	-22.283
206.46	-4.483
206.82	-3.150
207.19	-14.897
207.56	10.923
207.92	9.075
208.29	28.898
208.66	47.416
209.03	61.343
209.39	71.856
209.76	65.092
210.13	83.264
210.50	59.598
210.86	45.738
211.23	62.257
211.60	53.240
211.96	46.226
212.33	44.513
212.70	30.567
213.07	27.379
213.43	20.521
213.80	12.441
214.17	5.513
214.53	16.872
214.90	18.862
215.27	21.238
215.63	5.608
216.00	3.542
216.37	-5.117
216.74	-4.025
217.10	-8.378
217.47	-4.114
217.84	-5.483
218.20	-13.073
218.57	-40.308
218.94	-36.226
219.30	-54.318
219.67	-54.614
220.04	-47.507
220.40	-45.623
220.77	-33.606
221.13	-32.620
221.50	-27.723
221.87	-22.610
222.23	-23.352
222.60	-5.871
222.97	3.216
223.33	10.406
223.70	10.663
224.07	11.023
224.43	13.138
224.80	9.447
225.16	7.334
225.53	5.002
225.90	5.308
226.26	7.839
226.63	7.128
226.99	4.276
227.36	5.253
227.73	6.745
228.09	5.854
228.46	4.584
228.82	4.443
229.19	5.878
229.56	5.961
229.92	6.169
230.29	5.797
230.65	4.489
231.02	7.053
231.38	7.491
231.75	7.127
232.12	7.171
232.48	7.055
232.85	6.349
233.21	4.694
233.58	6.291
233.94	7.561
234.31	6.630
234.68	8.404
235.04	7.730
235.41	7.241
235.77	6.292
236.14	7.021
236.50	6.998
236.87	7.740
237.23	8.735
237.60	7.376
237.96	6.021
238.33	5.733
238.69	4.741
239.06	3.226
239.42	2.629
239.79	3.199
240.15	3.658
240.52	3.723
240.88	3.707
241.25	3.315
241.61	3.970
241.98	3.794
242.34	4.415
242.71	4.277
243.07	4.960
243.44	5.199
243.80	5.086
244.17	4.865
244.53	4.539
244.90	4.494
245.26	4.789
245.63	4.734
245.99	5.159
246.36	4.820
246.72	4.963
247.09	4.760
247.45	4.945
247.81	5.155
248.18	5.289
248.54	5.444
248.91	5.379
249.27	5.168
249.64	5.062
250.00	4.436
250.36	4.252
250.73	4.276
251.09	4.850
251.46	4.563
251.82	4.104
252.19	3.868
252.55	4.447
252.91	4.114
253.28	3.893
253.64	3.340
254.01	3.580
254.37	4.265
254.73	4.000
255.10	3.721
255.46	3.842
255.83	3.959
256.19	3.927
256.55	3.974
256.92	4.310
257.28	4.329
257.65	4.597
258.01	4.500
258.37	4.386
258.74	4.348
259.10	4.190
259.46	4.046
259.83	3.896
260.19	4.011
260.55	3.692
260.92	3.623
261.28	3.604
261.64	3.119
262.01	2.949
262.37	3.048
262.73	2.982
263.10	2.967
263.46	3.383
263.82	3.402
264.19	3.398
264.55	3.374
264.91	3.505
265.28	3.363
265.64	3.861
266.00	3.879
266.37	3.588
266.73	3.624
267.09	3.629
267.46	3.478
267.82	3.514
268.18	3.037
268.54	3.385
268.91	3.246
269.27	3.407
269.63	3.443
270.00	3.412
270.36	3.421
270.72	3.461
271.08	3.671
271.45	3.695
271.81	3.907
272.17	4.039
272.53	3.662
272.90	3.486
273.26	3.266
273.62	3.089
273.98	3.350
274.35	3.696
274.71	3.870
275.07	3.719
275.43	3.698
275.80	3.654
276.16	4.228
276.52	4.339
276.88	4.547
277.25	4.571
277.61	4.432
277.97	4.249
278.33	3.973
278.69	4.051
279.06	4.090
279.42	3.773
279.78	3.682
280.14	3.434
280.50	3.492
280.87	3.428
281.23	3.520
281.59	3.649
281.95	3.421
282.31	3.389
282.68	3.225
283.04	3.179
283.40	3.377
283.76	3.178
284.12	2.840
284.48	2.641
284.85	2.728
285.21	2.580
285.57	2.451
285.93	2.604
286.29	2.779
286.65	3.158
287.02	3.250
287.38	3.112
287.74	3.401
288.10	3.846
288.46	4.050
288.82	3.999
289.18	4.098
289.54	4.216
289.91	4.209
290.27	4.033
290.63	3.533
290.99	3.389
291.35	3.532
291.71	3.637
292.07	3.385
292.43	3.516
292.79	3.402
293.16	3.360
293.52	3.403
293.88	3.604
294.24	3.695
294.60	3.796
294.96	3.927
295.32	3.729
295.68	3.600
296.04	3.631
296.40	3.630
296.76	3.704
297.12	3.655
297.49	3.532
297.85	3.224
298.21	3.207
298.57	3.179
298.93	3.101
299.29	3.432
299.65	3.355
300.01	3.439
300.37	3.486
300.73	3.540
301.09	3.614
301.45	3.816
301.81	3.978
302.17	4.097
302.53	4.296
302.89	4.334
303.25	4.264
303.61	4.076
303.97	4.017
304.33	3.927
304.69	3.988
305.05	3.967
305.41	3.764
305.77	3.779
306.13	3.747
306.49	3.590
306.85	3.498
307.21	3.433
307.57	3.509
307.93	3.432
308.29	3.572
308.65	3.420
309.01	3.512
309.37	3.572
309.73	3.526
310.09	3.385
310.45	3.375
310.81	3.383
311.17	3.393
311.53	3.438
311.89	3.607
312.25	3.272
312.61	3.260
312.96	3.076
313.32	3.003
313.68	2.970
314.04	3.169
314.40	3.234
314.76	3.324
315.12	3.362
315.48	3.266
315.84	3.106
316.20	3.277
316.56	3.193
316.92	3.259
317.27	3.259
317.63	3.500
317.99	3.281
318.35	3.090
318.71	2.948
319.07	2.897
319.43	2.939
319.79	2.926
320.15	2.779
320.50	2.921
320.86	2.942
321.22	2.961
321.58	2.704
321.94	2.666
322.30	2.583
322.66	2.773
323.01	2.745
323.37	2.852
323.73	2.921
324.09	2.965
324.45	3.005
324.81	3.012
325.17	3.141
325.52	3.176
325.88	3.275
326.24	3.484
326.60	3.373
326.96	3.352
327.31	3.232
327.67	3.304
328.03	3.244
328.39	3.391
328.75	3.421
329.11	3.467
329.46	3.672
329.82	3.680
330.18	3.740
330.54	3.858
330.90	3.922
331.25	4.140
331.61	4.078
331.97	4.241
332.33	4.170
332.68	4.189
333.04	4.176
333.40	4.167
333.76	4.245
334.11	4.419
334.47	4.409
334.83	4.535
335.19	4.406
335.54	4.538
335.90	4.703
336.26	4.648
336.62	4.689
336.97	4.648
337.33	4.551
337.69	4.474
338.05	4.324
338.40	4.385
338.76	4.358
339.12	4.548
339.48	4.451
339.83	4.314
340.19	4.417
340.55	4.499
340.90	4.725
341.26	4.891
341.62	5.031
341.97	5.064
342.33	4.947
342.69	4.982
343.04	4.864
343.40	4.968
343.76	5.103
344.12	5.134
344.47	5.182
344.83	5.016
345.19	4.899
345.54	4.898
345.90	4.939
346.26	4.988
346.61	4.886
346.97	4.999
347.32	4.890
347.68	4.776
348.04	4.663
348.39	4.651
348.75	4.635
349.11	4.607
349.46	4.558
349.82	4.565
350.18	4.564
350.53	4.589
350.89	4.537
351.24	4.586
351.60	4.586
351.96	4.647
352.31	4.601
352.67	4.586
353.02	4.696
353.38	4.735
353.74	4.722
354.09	4.808
354.45	4.809
354.80	4.887
355.16	4.850
355.52	4.885
355.87	4.906
356.23	4.967
356.58	5.103
356.94	5.055
357.29	5.102
357.65	5.019
358.00	5.005
358.36	5.108
358.72	5.143
359.07	5.188
359.43	5.239
359.78	5.223
360.14	5.126
360.49	5.052
360.85	5.042
361.20	4.926
361.56	4.976
361.91	4.946
362.27	4.898
362.62	4.792
362.98	4.735
363.33	4.666
363.69	4.625
364.04	4.651
364.40	4.595
364.75	4.663
365.11	4.694
365.46	4.676
365.82	4.636
366.17	4.619
366.53	4.611
366.88	4.624
367.24	4.562
367.59	4.551
367.95	4.613
368.30	4.765
368.66	4.716
369.01	4.771
369.37	4.827
369.72	4.872
370.08	4.945
370.43	5.002
370.78	5.140
371.14	5.275
371.49	5.356
371.85	5.450
372.20	5.409
372.56	5.484
372.91	5.485
373.26	5.575
373.62	5.578
373.97	5.591
374.33	5.517
374.68	5.425
375.03	5.394
375.39	5.412
375.74	5.334
376.10	5.369
376.45	5.369
376.80	5.425
377.16	5.360
377.51	5.465
377.87	5.579
378.22	5.779
378.57	5.946
378.93	6.100
379.28	6.242
379.63	6.365
379.99	6.489
380.34	6.623
380.70	6.762
381.05	6.875
381.40	7.056
381.76	7.089
382.11	7.108
382.46	7.108
382.82	7.136
383.17	7.230
383.52	7.319
383.88	7.344
384.23	7.404
384.58	7.402
384.94	7.507
385.29	7.478
385.64	7.511
385.99	7.547
386.35	7.637
386.70	7.671
387.05	7.602
387.41	7.589
387.76	7.620
388.11	7.618
388.47	7.684
388.82	7.769
389.17	7.863
389.52	7.966
389.88	8.066
390.23	8.132
390.58	8.200
390.93	8.345
391.29	8.401
391.64	8.490
391.99	8.574
392.34	8.600
392.70	8.578
393.05	8.578
393.40	8.496
393.75	8.459
394.11	8.420
394.46	8.445
394.81	8.385
395.16	8.364
395.52	8.252
395.87	8.172
396.22	8.060
396.57	7.930
396.92	7.783
397.28	7.750
397.63	7.589
397.98	7.499
398.33	7.345
398.68	7.239
399.04	7.196
399.39	7.179
399.74	7.158
400.09	7.186
400.44	7.189
400.80	7.277
401.15	7.293
401.50	7.425
401.85	7.500
402.20	7.587
402.55	7.681
402.90	7.704
403.26	7.695
403.61	7.688
403.96	7.684
404.31	7.720
404.66	7.676
405.01	7.676
405.36	7.653
405.72	7.623
406.07	7.566
406.42	7.505
406.77	7.465
407.12	7.484
407.47	7.476
407.82	7.484
408.17	7.474
408.53	7.447
408.88	7.395
409.23	7.327
409.58	7.276
409.93	7.294
410.28	7.278
410.63	7.318
410.98	7.305
411.33	7.321
411.68	7.358
412.03	7.389
412.38	7.439
412.73	7.558
413.09	7.695
413.44	7.835
413.79	7.960
414.14	8.114
414.49	8.278
414.84	8.490
415.19	8.665
415.54	8.817
415.89	9.016
416.24	9.177
416.59	9.312
416.94	9.437
417.29	9.543
417.64	9.633
417.99	9.719
418.34	9.774
418.69	9.846
419.04	9.912
419.39	9.971
419.74	10.025
420.09	10.067
420.44	10.079
420.79	10.112
421.14	10.126
421.49	10.167
421.84	10.189
422.19	10.186
422.54	10.142
422.89	10.096
423.24	10.052
423.59	9.983
423.94	9.915
424.29	9.874
424.64	9.790
424.99	9.716
425.34	9.640
425.68	9.537
426.03	9.464
426.38	9.388
426.73	9.355
427.08	9.274
427.43	9.262
427.78	9.274
428.13	9.323
428.48	9.402
428.83	9.471
429.18	9.484
429.53	9.518
429.87	9.556
430.22	9.573
430.57	9.592
430.92	9.626
431.27	9.623
431.62	9.623
431.97	9.584
432.32	9.512
432.67	9.443
433.01	9.394
433.36	9.341
433.71	9.292
434.06	9.295
434.41	9.298
434.76	9.323
435.11	9.335
435.45	9.362
435.80	9.437
436.15	9.543
436.50	9.654
436.85	9.731
437.20	9.827
437.54	9.903
437.89	9.935
438.24	9.958
438.59	9.968
438.94	9.933
439.29	9.938
439.63	9.871
439.98	9.810
440.33	9.736
440.68	9.707
441.03	9.706
441.37	9.706
441.72	9.762
442.07	9.815
442.42	9.893
442.76	9.991
443.11	10.031
443.46	10.140
443.81	10.197
444.16	10.274
444.50	10.309
444.85	10.304
445.20	10.292
445.55	10.225
445.89	10.165
446.24	10.053
446.59	9.946
446.94	9.840
447.28	9.688
447.63	9.561
447.98	9.434
448.32	9.319
448.67	9.208
449.02	9.128
449.37	9.104
449.71	9.069
450.06	9.102
450.41	9.141
450.75	9.201
451.10	9.242
451.45	9.258
451.79	9.225
452.14	9.227
452.49	9.219
452.84	9.224
453.18	9.208
453.53	9.174
453.88	9.170
454.22	9.176
454.57	9.211
454.92	9.274
455.26	9.409
455.61	9.554
455.95	9.707
456.30	9.842
456.65	9.956
456.99	10.049
457.34	10.177
457.69	10.254
458.03	10.338
458.38	10.382
458.73	10.384
459.07	10.329
459.42	10.294
459.76	10.212
460.11	10.125
460.46	10.040
460.80	9.951
461.15	9.843
461.49	9.745
461.84	9.640
462.19	9.583
462.53	9.548
462.88	9.565
463.22	9.585
463.57	9.610
463.91	9.652
464.26	9.697
464.61	9.751
464.95	9.823
465.30	9.884
465.64	9.936
465.99	9.933
466.33	9.952
466.68	9.973
467.02	9.968
467.37	9.973
467.71	9.973
468.06	9.966
468.41	9.971
468.75	9.909
469.10	9.872
469.44	9.841
469.79	9.790
470.13	9.766
470.48	9.715
470.82	9.679
471.17	9.639
471.51	9.601
471.86	9.545
472.20	9.500
472.55	9.493
472.89	9.475
473.23	9.440
473.58	9.431
473.92	9.402
474.27	9.380
474.61	9.386
474.96	9.383
475.30	9.409
475.65	9.441
475.99	9.465
476.34	9.498
476.68	9.542
477.02	9.563
477.37	9.630
477.71	9.717
478.06	9.880
478.40	10.116
478.75	10.507
479.09	10.930
479.43	11.351
479.78	11.750
480.12	12.123
480.47	12.453
480.81	12.785
481.15	13.097
481.50	13.383
481.84	13.682
482.19	13.971
482.53	14.200
482.87	14.319
483.22	14.303
483.56	14.210
483.90	14.090
484.25	14.012
484.59	13.916
484.94	13.794
485.28	13.643
485.62	13.433
485.97	13.180
486.31	12.935
486.65	12.777
487.00	12.738
487.34	12.772
487.68	12.804
488.03	12.779
488.37	12.733
488.71	12.692
489.06	12.672
489.40	12.635
489.74	12.600
490.09	12.538
490.43	12.435
490.77	12.333
491.11	12.207
491.46	12.093
491.80	11.976
492.14	11.867
492.49	11.736
492.83	11.584
493.17	11.439
493.51	11.317
493.86	11.208
494.20	11.143
494.54	11.136
494.88	11.149
495.23	11.211
495.57	11.269
495.91	11.326
496.25	11.405
496.60	11.467
496.94	11.524
497.28	11.561
497.62	11.564
497.97	11.598
498.31	11.605
498.65	11.625
498.99	11.642
499.33	11.672
499.68	11.702
500.02	11.712
500.36	11.768
500.70	11.817
501.04	11.873
501.39	11.960
501.73	12.016
502.07	12.085
502.41	12.190
502.75	12.273
503.09	12.374
503.44	12.506
503.78	12.622
504.12	12.732
504.46	12.841
504.80	12.959
505.14	13.099
505.49	13.250
505.83	13.395
506.17	13.531
506.51	13.649
506.85	13.779
507.19	13.869
507.53	13.977
507.87	14.068
508.22	14.187
508.56	14.270
508.90	14.341
509.24	14.382
509.58	14.429
509.92	14.481
510.26	14.521
510.60	14.553
510.94	14.595
511.28	14.639
511.63	14.717
511.97	14.772
512.31	14.854
512.65	14.950
512.99	15.082
513.33	15.235
513.67	15.417
514.01	15.655
514.35	15.861
514.69	16.066
515.03	16.268
515.37	16.454
515.71	16.637
516.05	16.812
516.39	16.975
516.73	17.105
517.07	17.173
517.41	17.224
517.75	17.210
518.09	17.170
518.43	17.137
518.77	17.091
519.11	17.009
519.45	16.916
519.79	16.798
520.13	16.719
520.47	16.659
520.81	16.684
521.15	16.717
521.49	16.816
521.83	16.947
522.17	17.129
522.51	17.315
522.85	17.549
523.19	17.881
523.53	18.313
523.87	18.774
524.21	19.244
524.55	19.672
524.89	20.023
525.23	20.345
525.57	20.626
525.91	20.866
526.25	21.084
526.58	21.279
526.92	21.435
527.26	21.525
527.60	21.528
527.94	21.485
528.28	21.404
528.62	21.336
528.96	21.246
529.30	21.164
529.64	21.062
529.97	20.957
530.31	20.819
530.65	20.678
530.99	20.534
531.33	20.477
531.67	20.436
532.01	20.418
532.35	20.377
532.68	20.307
533.02	20.229
533.36	20.146
533.70	20.049
534.04	19.982
534.38	19.895
534.71	19.811
535.05	19.700
535.39	19.591
535.73	19.490
536.07	19.444
536.41	19.496
536.74	19.602
537.08	19.746
537.42	19.904
537.76	20.071
538.10	20.261
538.43	20.452
538.77	20.603
539.11	20.759
539.45	20.903
539.79	21.027
540.12	21.119
540.46	21.136
540.80	21.096
541.14	21.062
541.47	21.013
541.81	20.910
542.15	20.807
542.49	20.679
542.82	20.516
543.16	20.350
543.50	20.157
543.84	19.956
544.17	19.796
544.51	19.685
544.85	19.556
545.18	19.442
545.52	19.319
545.86	19.162
546.20	19.032
546.53	18.910
546.87	18.766
547.21	18.642
547.54	18.488
547.88	18.377
548.22	18.258
548.55	18.167
548.89	18.088
549.23	18.033
549.56	18.011
549.90	17.999
550.24	18.016
550.57	18.005
550.91	18.024
551.25	18.012
551.58	18.017
551.92	17.987
552.26	17.957
552.59	17.897
552.93	17.838
553.27	17.786
553.60	17.745
553.94	17.709
554.27	17.688
554.61	17.642
554.95	17.621
555.28	17.559
555.62	17.557
555.95	17.559
556.29	17.573
556.63	17.573
556.96	17.576
557.30	17.570
557.63	17.557
557.97	17.537
558.31	17.492
558.64	17.474
558.98	17.496
559.31	17.484
559.65	17.470
559.98	17.420
560.32	17.430
560.65	17.441
560.99	17.473
561.33	17.492
561.66	17.579
562.00	17.662
562.33	17.737
562.67	17.795
563.00	17.851
563.34	17.901
563.67	17.972
564.01	18.031
564.34	18.087
564.68	18.105
565.01	18.105
565.35	18.075
565.68	18.039
566.02	18.033
566.35	18.004
566.69	17.987
567.02	17.960
567.36	17.951
567.69	17.932
568.03	17.948
568.36	17.979
568.69	18.002
569.03	18.022
569.36	18.062
569.70	18.062
570.03	18.091
570.37	18.126
570.70	18.154
571.04	18.153
571.37	18.149
571.70	18.122
572.04	18.045
572.37	18.022
572.71	17.979
573.04	17.933
573.37	17.886
573.71	17.798
574.04	17.681
574.38	17.541
574.71	17.445
575.04	17.333
575.38	17.216
575.71	17.121
576.05	16.992
576.38	16.891
576.71	16.763
577.05	16.623
577.38	16.483
577.71	16.392
578.05	16.346
578.38	16.207
578.71	16.096
579.05	15.976
579.38	15.898
579.71	15.810
580.05	15.728
580.38	15.635
580.71	15.556
581.05	15.521
581.38	15.490
581.71	15.419
582.05	15.401
582.38	15.407
582.71	15.359
583.04	15.331
583.38	15.365
583.71	15.346
584.04	15.373
584.38	15.428
584.71	15.455
585.04	15.465
585.37	15.526
585.71	15.628
586.04	15.669
586.37	15.782
586.70	15.822
587.04	15.809
587.37	15.833
587.70	15.835
588.03	15.832
588.37	15.793
588.70	15.769
589.03	15.686
589.36	15.613
589.69	15.560
590.03	15.465
590.36	15.400
590.69	15.343
591.02	15.244
591.35	15.200
591.69	15.176
592.02	15.198
592.35	15.197
592.68	15.213
593.01	15.202
593.35	15.212
593.68	15.230
594.01	15.209
594.34	15.213
594.67	15.241
595.00	15.224
595.34	15.196
595.67	15.118
596.00	15.019
596.33	14.924
596.66	14.822
596.99	14.724
597.32	14.568
597.65	14.460
597.99	14.318
598.32	14.204
598.65	14.116
598.98	13.942
599.31	13.887
599.64	13.879
599.97	13.879
600.30	13.887
600.63	13.902
600.96	13.980
601.30	14.029
601.63	14.111
601.96	14.146
602.29	14.158
602.62	14.234
602.95	14.223
603.28	14.160
603.61	14.123
603.94	14.047
604.27	13.957
604.60	13.865
604.93	13.781
605.26	13.660
605.59	13.542
605.92	13.459
606.25	13.373
606.58	13.290
606.91	13.259
607.24	13.187
607.57	13.159
607.90	13.097
608.23	13.020
608.56	12.931
608.89	12.848
609.22	12.718
609.55	12.581
609.88	12.415
610.21	12.259
610.54	12.101
610.87	11.956
611.20	11.780
611.53	11.654
611.86	11.518
612.19	11.429
612.52	11.269
612.85	11.233
613.18	11.156
613.51	11.128
613.84	11.063
614.17	11.009
614.49	10.951
614.82	10.862
615.15	10.716
615.48	10.652
615.81	10.592
616.14	10.584
616.47	10.478
616.80	10.429
617.13	10.355
617.46	10.296
617.78	10.229
618.11	10.180
618.44	10.101
618.77	10.058
619.10	9.949
619.43	9.848
619.76	9.766
620.09	9.756
620.41	9.641
620.74	9.583
621.07	9.528
621.40	9.498
621.73	9.473
622.06	9.536
622.38	9.604
622.71	9.642
623.04	9.671
623.37	9.724
623.70	9.768
624.02	9.820
624.35	9.853
624.68	9.928
625.01	9.984
625.34	10.009
625.66	10.020
625.99	10.009
626.32	10.036
626.65	10.003
626.98	9.936
627.30	9.836
627.63	9.794
627.96	9.692
628.29	9.589
628.61	9.446
628.94	9.326
629.27	9.169
629.60	9.063
629.92	8.948
630.25	8.864
630.58	8.815
630.91	8.753
631.23	8.671
631.56	8.686
631.89	8.583
632.21	8.511
632.54	8.468
632.87	8.490
633.19	8.424
633.52	8.325
633.85	8.263
634.18	8.157
634.50	8.095
634.83	8.009
635.16	7.854
635.48	7.801
635.81	7.698
636.14	7.587
636.46	7.484
636.79	7.347
637.11	7.272
637.44	7.190
637.77	7.095
638.09	6.993
638.42	6.924
638.75	6.901
639.07	6.812
639.40	6.765
639.73	6.725
640.05	6.612
640.38	6.572
640.70	6.569
641.03	6.511
641.36	6.460
641.68	6.474
642.01	6.462
642.33	6.383
642.66	6.312
642.98	6.371
643.31	6.335
643.64	6.321
643.96	6.321
644.29	6.298
644.61	6.319
644.94	6.305
645.26	6.268
645.59	6.287
645.91	6.320
646.24	6.403
646.56	6.323
646.89	6.332
647.22	6.282
647.54	6.321
647.87	6.331
648.19	6.253
648.52	6.319
648.84	6.325
649.17	6.248
