OOIBase32 Version 2.0.0.6 Data File
++++++++++++++++++++++++++++++++++++
Date: 01-22-2012, 20:57:36
User: Valued Ocean Optics Customer
Spectrometer Serial Number: USB2E2917
Spectrometer Channel: Master
Integration Time (msec): 4
Spectra Averaged: 10
Boxcar Smoothing: 5
Correct for Electrical Dark: Enabled
Time Normalized: Disabled
Dual-beam Reference: Disabled
Reference Channel: Master
Temperature: Not acquired
Spectrometer Type: S2000
ADC Type: USB2000
Number of Pixels in File: 2048
Graph Title: 
>>>>>Begin Spectral Data<<<<<
180.30	0.000
180.67	0.000
181.03	-45.501
181.40	170.682
181.77	-265.515
182.14	-125.913
182.51	299.182
182.88	-35.465
183.25	300.187
183.62	9.485
183.99	40.533
184.36	35.543
184.73	82.175
185.10	2118.680
185.46	-43.569
185.83	49.686
186.20	-24.064
186.57	580.868
186.94	75.125
187.31	-35.462
187.68	-2056.416
188.05	20.870
188.42	236.434
188.78	22.129
189.15	54.151
189.52	42.849
189.89	9.758
190.26	9.923
190.63	-2.791
191.00	-16.676
191.37	-30.439
191.73	-52.333
192.10	-116.708
192.47	-86.364
192.84	-258.158
193.21	-446.367
193.58	-413.872
193.94	-180.616
194.31	-23.102
194.68	-18.562
195.05	-21.571
195.42	-4.614
195.79	-20.557
196.15	12.061
196.52	26.365
196.89	28.372
197.26	20.641
197.63	11.845
198.00	-0.252
198.36	-74.401
198.73	-112.316
199.10	-69.582
199.47	-35.568
199.84	-17.684
200.20	-64.005
200.57	-58.934
200.94	-35.829
201.31	-9.999
201.68	-7.084
202.04	2.596
202.41	-4.142
202.78	13.297
203.15	19.083
203.51	22.856
203.88	29.616
204.25	24.526
204.62	22.470
204.98	27.100
205.35	-2.645
205.72	-28.685
206.09	-89.993
206.46	-42.119
206.82	-107.098
207.19	-122.726
207.56	-123.188
207.92	-112.222
208.29	-50.360
208.66	-28.290
209.03	-35.051
209.39	20.372
209.76	31.812
210.13	40.245
210.50	47.095
210.86	50.701
211.23	52.290
211.60	17.477
211.96	-35.216
212.33	-121.203
212.70	3426.930
213.07	361.907
213.43	415.242
213.80	1181.104
214.17	244.326
214.53	1233.189
214.90	-139.988
215.27	-35.293
215.63	-55.058
216.00	2.486
216.37	9.178
216.74	1.242
217.10	8.624
217.47	8.291
217.84	-3.659
218.20	-2.222
218.57	-0.070
218.94	-9.730
219.30	-20.875
219.67	-7.969
220.04	-8.858
220.40	-0.747
220.77	-3.309
221.13	-3.688
221.50	4.042
221.87	14.268
222.23	16.978
222.60	17.857
222.97	18.788
223.33	17.364
223.70	7.373
224.07	5.277
224.43	-2.537
224.80	3.141
225.16	0.159
225.53	-0.079
225.90	-2.771
226.26	-3.945
226.63	-5.420
226.99	-5.808
227.36	-5.749
227.73	-3.753
228.09	-3.468
228.46	-0.556
228.82	-2.612
229.19	-1.065
229.56	-3.623
229.92	-2.747
230.29	-1.376
230.65	-0.508
231.02	-2.013
231.38	0.828
231.75	0.189
232.12	1.480
232.48	-3.056
232.85	-2.143
233.21	-2.861
233.58	0.764
233.94	1.720
234.31	1.969
234.68	1.885
235.04	6.890
235.41	5.148
235.77	3.753
236.14	2.858
236.50	6.415
236.87	7.486
237.23	6.881
237.60	4.266
237.96	3.011
238.33	2.032
238.69	2.508
239.06	0.960
239.42	1.155
239.79	2.115
240.15	2.330
240.52	2.111
240.88	0.791
241.25	0.969
241.61	1.341
241.98	1.346
242.34	1.025
242.71	0.695
243.07	0.928
243.44	1.161
243.80	1.233
244.17	0.807
244.53	0.271
244.90	0.564
245.26	0.568
245.63	0.710
245.99	0.876
246.36	1.314
246.72	1.318
247.09	1.264
247.45	1.294
247.81	1.201
248.18	1.833
248.54	2.240
248.91	2.134
249.27	1.900
249.64	2.191
250.00	2.439
250.36	2.162
250.73	1.771
251.09	1.711
251.46	1.221
251.82	1.612
252.19	1.079
252.55	1.274
252.91	1.856
253.28	2.490
253.64	1.524
254.01	1.189
254.37	1.342
254.73	1.493
255.10	1.184
255.46	1.858
255.83	1.524
256.19	1.559
256.55	1.371
256.92	1.366
257.28	1.029
257.65	1.379
258.01	1.065
258.37	0.892
258.74	0.876
259.10	1.053
259.46	0.641
259.83	0.627
260.19	0.706
260.55	0.588
260.92	0.390
261.28	0.483
261.64	0.444
262.01	0.635
262.37	0.557
262.73	0.633
263.10	0.095
263.46	0.740
263.82	0.648
264.19	0.342
264.55	0.765
264.91	0.849
265.28	0.978
265.64	0.806
266.00	0.895
266.37	1.449
266.73	1.391
267.09	1.552
267.46	0.916
267.82	0.958
268.18	1.028
268.54	0.853
268.91	0.977
269.27	0.885
269.63	0.644
270.00	0.754
270.36	0.540
270.72	0.666
271.08	0.582
271.45	0.776
271.81	0.847
272.17	1.105
272.53	1.238
272.90	1.135
273.26	1.030
273.62	1.499
273.98	1.554
274.35	1.577
274.71	1.340
275.07	1.540
275.43	1.723
275.80	1.782
276.16	1.611
276.52	1.243
276.88	1.200
277.25	0.933
277.61	1.030
277.97	1.128
278.33	1.032
278.69	1.445
279.06	1.249
279.42	1.098
279.78	1.069
280.14	1.106
280.50	1.245
280.87	1.281
281.23	1.542
281.59	1.443
281.95	1.119
282.31	1.172
282.68	1.003
283.04	1.200
283.40	1.044
283.76	1.038
284.12	0.908
284.48	0.971
284.85	0.986
285.21	1.100
285.57	0.952
285.93	1.238
286.29	1.073
286.65	1.161
287.02	1.151
287.38	1.385
287.74	1.452
288.10	1.572
288.46	1.553
288.82	1.692
289.18	1.355
289.54	1.295
289.91	1.121
290.27	1.414
290.63	1.392
290.99	1.464
291.35	1.584
291.71	1.474
292.07	1.565
292.43	1.703
292.79	1.826
293.16	2.252
293.52	2.555
293.88	2.802
294.24	2.927
294.60	3.239
294.96	3.261
295.32	3.436
295.68	3.433
296.04	3.611
296.40	3.638
296.76	3.668
297.12	3.900
297.49	4.109
297.85	4.323
298.21	4.563
298.57	4.581
298.93	4.896
299.29	5.007
299.65	5.666
300.01	5.849
300.37	6.239
300.73	6.306
301.09	6.326
301.45	6.246
301.81	6.426
302.17	6.329
302.53	6.684
302.89	6.727
303.25	6.859
303.61	6.770
303.97	6.878
304.33	7.160
304.69	7.679
305.05	7.799
305.41	8.291
305.77	8.314
306.13	8.620
306.49	8.626
306.85	8.789
307.21	8.834
307.57	8.962
307.93	9.050
308.29	9.035
308.65	8.781
309.01	8.976
309.37	8.835
309.73	8.885
310.09	8.828
310.45	8.887
310.81	9.031
311.17	9.194
311.53	9.302
311.89	9.414
312.25	9.432
312.61	9.733
312.96	9.860
313.32	10.042
313.68	10.105
314.04	10.283
314.40	10.197
314.76	10.221
315.12	10.115
315.48	10.096
315.84	9.753
316.20	9.540
316.56	9.461
316.92	9.202
317.27	9.242
317.63	9.170
317.99	9.093
318.35	9.358
318.71	9.411
319.07	9.555
319.43	9.424
319.79	9.712
320.15	9.959
320.50	10.036
320.86	10.181
321.22	10.196
321.58	10.098
321.94	10.060
322.30	9.962
322.66	9.868
323.01	9.825
323.37	10.071
323.73	9.912
324.09	10.036
324.45	9.945
324.81	9.930
325.17	9.896
325.52	9.966
325.88	9.937
326.24	9.907
326.60	9.893
326.96	9.912
327.31	9.550
327.67	9.588
328.03	9.383
328.39	9.383
328.75	9.362
329.11	9.345
329.46	9.401
329.82	9.486
330.18	9.488
330.54	9.558
330.90	9.588
331.25	9.781
331.61	9.801
331.97	9.855
332.33	9.714
332.68	9.774
333.04	9.696
333.40	9.676
333.76	9.648
334.11	9.720
334.47	9.738
334.83	9.612
335.19	9.562
335.54	9.614
335.90	9.610
336.26	9.661
336.62	9.567
336.97	9.509
337.33	9.513
337.69	9.532
338.05	9.453
338.40	9.423
338.76	9.450
339.12	9.459
339.48	9.271
339.83	9.176
340.19	9.247
340.55	9.209
340.90	9.213
341.26	9.243
341.62	9.207
341.97	9.177
342.33	9.139
342.69	9.167
343.04	9.100
343.40	9.238
343.76	9.165
344.12	9.132
344.47	9.111
344.83	9.175
345.19	9.058
345.54	9.037
345.90	9.009
346.26	8.961
346.61	8.825
346.97	8.892
347.32	8.820
347.68	8.888
348.04	8.829
348.39	8.845
348.75	8.762
349.11	8.836
349.46	8.844
349.82	8.792
350.18	8.821
350.53	8.893
350.89	8.790
351.24	8.823
351.60	8.728
351.96	8.750
352.31	8.739
352.67	8.679
353.02	8.685
353.38	8.682
353.74	8.729
354.09	8.670
354.45	8.634
354.80	8.605
355.16	8.608
355.52	8.641
355.87	8.550
356.23	8.540
356.58	8.568
356.94	8.509
357.29	8.508
357.65	8.432
358.00	8.367
358.36	8.393
358.72	8.365
359.07	8.379
359.43	8.386
359.78	8.435
360.14	8.394
360.49	8.341
360.85	8.302
361.20	8.241
361.56	8.257
361.91	8.289
362.27	8.244
362.62	8.275
362.98	8.182
363.33	8.173
363.69	8.129
364.04	8.220
364.40	8.268
364.75	8.259
365.11	8.211
365.46	8.193
365.82	8.102
366.17	8.084
366.53	8.055
366.88	8.029
367.24	8.007
367.59	8.015
367.95	7.902
368.30	7.894
368.66	7.910
369.01	7.917
369.37	7.906
369.72	7.962
370.08	7.929
370.43	7.899
370.78	7.944
371.14	7.932
371.49	7.919
371.85	7.882
372.20	7.849
372.56	7.817
372.91	7.784
373.26	7.773
373.62	7.732
373.97	7.753
374.33	7.797
374.68	7.771
375.03	7.704
375.39	7.632
375.74	7.646
376.10	7.642
376.45	7.635
376.80	7.669
377.16	7.616
377.51	7.642
377.87	7.643
378.22	7.613
378.57	7.579
378.93	7.581
379.28	7.593
379.63	7.586
379.99	7.580
380.34	7.541
380.70	7.507
381.05	7.460
381.40	7.377
381.76	7.307
382.11	7.240
382.46	7.252
382.82	7.257
383.17	7.234
383.52	7.191
383.88	7.179
384.23	7.184
384.58	7.174
384.94	7.207
385.29	7.245
385.64	7.243
385.99	7.219
386.35	7.181
386.70	7.158
387.05	7.149
387.41	7.147
387.76	7.062
388.11	7.055
388.47	6.994
388.82	6.997
389.17	6.919
389.52	6.891
389.88	6.918
390.23	6.935
390.58	6.909
390.93	6.908
391.29	6.916
391.64	6.962
391.99	6.961
392.34	6.990
392.70	6.992
393.05	7.029
393.40	7.049
393.75	7.023
394.11	6.986
394.46	6.961
394.81	6.921
395.16	6.896
395.52	6.873
395.87	6.839
396.22	6.828
396.57	6.803
396.92	6.741
397.28	6.708
397.63	6.681
397.98	6.664
398.33	6.676
398.68	6.681
399.04	6.603
399.39	6.564
399.74	6.562
400.09	6.526
400.44	6.492
400.80	6.526
401.15	6.510
401.50	6.534
401.85	6.505
402.20	6.469
402.55	6.465
402.90	6.513
403.26	6.483
403.61	6.466
403.96	6.452
404.31	6.429
404.66	6.408
405.01	6.403
405.36	6.353
405.72	6.355
406.07	6.346
406.42	6.336
406.77	6.285
407.12	6.323
407.47	6.272
407.82	6.283
408.17	6.247
408.53	6.236
408.88	6.219
409.23	6.209
409.58	6.201
409.93	6.205
410.28	6.199
410.63	6.194
410.98	6.135
411.33	6.134
411.68	6.091
412.03	6.101
412.38	6.082
412.73	6.077
413.09	6.035
413.44	6.015
413.79	5.982
414.14	5.945
414.49	5.907
414.84	5.900
415.19	5.883
415.54	5.875
415.89	5.844
416.24	5.837
416.59	5.788
416.94	5.771
417.29	5.726
417.64	5.701
417.99	5.682
418.34	5.690
418.69	5.651
419.04	5.641
419.39	5.647
419.74	5.650
420.09	5.616
420.44	5.612
420.79	5.600
421.14	5.606
421.49	5.620
421.84	5.607
422.19	5.589
422.54	5.612
422.89	5.587
423.24	5.554
423.59	5.534
423.94	5.541
424.29	5.531
424.64	5.561
424.99	5.583
425.34	5.570
425.68	5.569
426.03	5.569
426.38	5.569
426.73	5.587
427.08	5.582
427.43	5.601
427.78	5.611
428.13	5.602
428.48	5.583
428.83	5.552
429.18	5.528
429.53	5.549
429.87	5.540
430.22	5.521
430.57	5.534
430.92	5.532
431.27	5.499
431.62	5.483
431.97	5.482
432.32	5.470
432.67	5.461
433.01	5.476
433.36	5.453
433.71	5.457
434.06	5.463
434.41	5.429
434.76	5.446
435.11	5.491
435.45	5.478
435.80	5.466
436.15	5.462
436.50	5.446
436.85	5.443
437.20	5.437
437.54	5.429
437.89	5.431
438.24	5.429
438.59	5.402
438.94	5.346
439.29	5.331
439.63	5.319
439.98	5.309
440.33	5.305
440.68	5.280
441.03	5.265
441.37	5.261
441.72	5.240
442.07	5.236
442.42	5.233
442.76	5.256
443.11	5.256
443.46	5.259
443.81	5.247
444.16	5.246
444.50	5.256
444.85	5.259
445.20	5.249
445.55	5.241
445.89	5.236
446.24	5.214
446.59	5.192
446.94	5.199
447.28	5.196
447.63	5.185
447.98	5.152
448.32	5.124
448.67	5.088
449.02	5.085
449.37	5.084
449.71	5.082
450.06	5.109
450.41	5.098
450.75	5.070
451.10	5.062
451.45	5.066
451.79	5.090
452.14	5.104
452.49	5.114
452.84	5.102
453.18	5.094
453.53	5.083
453.88	5.070
454.22	5.055
454.57	5.042
454.92	5.038
455.26	5.016
455.61	4.995
455.95	4.968
456.30	4.964
456.65	4.942
456.99	4.921
457.34	4.904
457.69	4.889
458.03	4.890
458.38	4.900
458.73	4.896
459.07	4.898
459.42	4.902
459.76	4.894
460.11	4.886
460.46	4.885
460.80	4.883
461.15	4.893
461.49	4.883
461.84	4.889
462.19	4.870
462.53	4.844
462.88	4.815
463.22	4.808
463.57	4.801
463.91	4.811
464.26	4.825
464.61	4.820
464.95	4.820
465.30	4.834
465.64	4.815
465.99	4.820
466.33	4.835
466.68	4.830
467.02	4.814
467.37	4.827
467.71	4.800
468.06	4.770
468.41	4.756
468.75	4.720
469.10	4.708
469.44	4.697
469.79	4.670
470.13	4.646
470.48	4.654
470.82	4.663
471.17	4.646
471.51	4.638
471.86	4.625
472.20	4.591
472.55	4.586
472.89	4.546
473.23	4.521
473.58	4.514
473.92	4.479
474.27	4.466
474.61	4.430
474.96	4.413
475.30	4.421
475.65	4.422
475.99	4.425
476.34	4.401
476.68	4.406
477.02	4.402
477.37	4.394
477.71	4.405
478.06	4.391
478.40	4.397
478.75	4.421
479.09	4.430
479.43	4.459
479.78	4.498
480.12	4.541
480.47	4.596
480.81	4.643
481.15	4.696
481.50	4.745
481.84	4.804
482.19	4.867
482.53	4.900
482.87	4.902
483.22	4.873
483.56	4.811
483.90	4.743
484.25	4.677
484.59	4.642
484.94	4.583
485.28	4.530
485.62	4.462
485.97	4.378
486.31	4.311
486.65	4.278
487.00	4.265
487.34	4.295
487.68	4.336
488.03	4.346
488.37	4.334
488.71	4.324
489.06	4.306
489.40	4.293
489.74	4.284
490.09	4.273
490.43	4.262
490.77	4.252
491.11	4.240
491.46	4.219
491.80	4.203
492.14	4.165
492.49	4.152
492.83	4.126
493.17	4.090
493.51	4.061
493.86	4.037
494.20	4.020
494.54	4.008
494.88	4.004
495.23	3.985
495.57	3.974
495.91	3.984
496.25	3.985
496.60	3.977
496.94	3.967
497.28	3.949
497.62	3.923
497.97	3.915
498.31	3.907
498.65	3.894
498.99	3.892
499.33	3.895
499.68	3.878
500.02	3.845
500.36	3.841
500.70	3.850
501.04	3.843
501.39	3.855
501.73	3.834
502.07	3.803
502.41	3.799
502.75	3.804
503.09	3.793
503.44	3.794
503.78	3.795
504.12	3.794
504.46	3.786
504.80	3.785
505.14	3.772
505.49	3.786
505.83	3.796
506.17	3.790
506.51	3.772
506.85	3.775
507.19	3.773
507.53	3.766
507.87	3.754
508.22	3.755
508.56	3.765
508.90	3.766
509.24	3.743
509.58	3.755
509.92	3.743
510.26	3.727
510.60	3.700
510.94	3.679
511.28	3.676
511.63	3.673
511.97	3.658
512.31	3.627
512.65	3.616
512.99	3.618
513.33	3.600
513.67	3.604
514.01	3.629
514.35	3.644
514.69	3.655
515.03	3.661
515.37	3.655
515.71	3.661
516.05	3.665
516.39	3.656
516.73	3.649
517.07	3.642
517.41	3.639
517.75	3.616
518.09	3.614
518.43	3.610
518.77	3.593
519.11	3.586
519.45	3.554
519.79	3.549
520.13	3.551
520.47	3.551
520.81	3.546
521.15	3.536
521.49	3.531
521.83	3.528
522.17	3.507
522.51	3.511
522.85	3.534
523.19	3.567
523.53	3.590
523.87	3.606
524.21	3.629
524.55	3.661
524.89	3.686
525.23	3.720
525.57	3.733
525.91	3.761
526.25	3.779
526.58	3.783
526.92	3.791
527.26	3.800
527.60	3.803
527.94	3.790
528.28	3.774
528.62	3.760
528.96	3.736
529.30	3.728
529.64	3.706
529.97	3.680
530.31	3.671
530.65	3.640
530.99	3.611
531.33	3.586
531.67	3.583
532.01	3.575
532.35	3.569
532.68	3.563
533.02	3.546
533.36	3.538
533.70	3.529
534.04	3.509
534.38	3.487
534.71	3.474
535.05	3.453
535.39	3.427
535.73	3.409
536.07	3.388
536.41	3.391
536.74	3.381
537.08	3.379
537.42	3.383
537.76	3.374
538.10	3.402
538.43	3.408
538.77	3.430
539.11	3.452
539.45	3.459
539.79	3.466
540.12	3.473
540.46	3.470
540.80	3.463
541.14	3.458
541.47	3.462
541.81	3.438
542.15	3.427
542.49	3.406
542.82	3.375
543.16	3.359
543.50	3.340
543.84	3.295
544.17	3.276
544.51	3.267
544.85	3.263
545.18	3.241
545.52	3.232
545.86	3.217
546.20	3.214
546.53	3.200
546.87	3.192
547.21	3.184
547.54	3.189
547.88	3.184
548.22	3.169
548.55	3.123
548.89	3.091
549.23	3.092
549.56	3.077
549.90	3.049
550.24	3.047
550.57	3.027
550.91	3.006
551.25	2.985
551.58	2.977
551.92	2.948
552.26	2.954
552.59	2.958
552.93	2.964
553.27	2.952
553.60	2.946
553.94	2.936
554.27	2.923
554.61	2.920
554.95	2.934
555.28	2.907
555.62	2.911
555.95	2.911
556.29	2.909
556.63	2.895
556.96	2.909
557.30	2.923
557.63	2.920
557.97	2.927
558.31	2.919
558.64	2.915
558.98	2.944
559.31	2.953
559.65	2.937
559.98	2.930
560.32	2.925
560.65	2.913
560.99	2.913
561.33	2.903
561.66	2.897
562.00	2.880
562.33	2.860
562.67	2.836
563.00	2.840
563.34	2.857
563.67	2.872
564.01	2.863
564.34	2.866
564.68	2.864
565.01	2.870
565.35	2.871
565.68	2.881
566.02	2.878
566.35	2.883
566.69	2.863
567.02	2.856
567.36	2.861
567.69	2.842
568.03	2.824
568.36	2.819
568.69	2.829
569.03	2.833
569.36	2.833
569.70	2.843
570.03	2.855
570.37	2.863
570.70	2.858
571.04	2.846
571.37	2.853
571.70	2.855
572.04	2.834
572.37	2.817
572.71	2.805
573.04	2.804
573.37	2.788
573.71	2.767
574.04	2.763
574.38	2.756
574.71	2.751
575.04	2.741
575.38	2.738
575.71	2.754
576.05	2.749
576.38	2.741
576.71	2.707
577.05	2.713
577.38	2.716
577.71	2.686
578.05	2.654
578.38	2.638
578.71	2.640
579.05	2.615
579.38	2.603
579.71	2.580
580.05	2.585
580.38	2.606
580.71	2.573
581.05	2.563
581.38	2.553
581.71	2.557
582.05	2.529
582.38	2.499
582.71	2.500
583.04	2.491
583.38	2.470
583.71	2.434
584.04	2.408
584.38	2.425
584.71	2.408
585.04	2.436
585.37	2.409
585.71	2.430
586.04	2.431
586.37	2.434
586.70	2.399
587.04	2.428
587.37	2.419
587.70	2.419
588.03	2.375
588.37	2.368
588.70	2.333
589.03	2.333
589.36	2.287
589.69	2.277
590.03	2.236
590.36	2.232
590.69	2.201
591.02	2.199
591.35	2.162
591.69	2.157
592.02	2.138
592.35	2.126
592.68	2.129
593.01	2.153
593.35	2.147
593.68	2.132
594.01	2.124
594.34	2.128
594.67	2.110
595.00	2.099
595.34	2.082
595.67	2.043
596.00	2.015
596.33	1.989
596.66	1.930
596.99	1.899
597.32	1.896
597.65	1.859
597.99	1.797
598.32	1.759
598.65	1.717
598.98	1.665
599.31	1.673
599.64	1.666
599.97	1.643
600.30	1.659
600.63	1.626
600.96	1.622
601.30	1.617
601.63	1.620
601.96	1.616
602.29	1.657
602.62	1.684
602.95	1.665
603.28	1.652
603.61	1.625
603.94	1.579
604.27	1.578
604.60	1.545
604.93	1.528
605.26	1.511
605.59	1.519
605.92	1.482
606.25	1.463
606.58	1.447
606.91	1.437
607.24	1.415
607.57	1.431
607.90	1.403
608.23	1.399
608.56	1.370
608.89	1.343
609.22	1.269
609.55	1.238
609.88	1.203
610.21	1.161
610.54	1.104
610.87	1.072
611.20	0.998
611.53	0.956
611.86	0.891
612.19	0.873
612.52	0.809
612.85	0.829
613.18	0.775
613.51	0.702
613.84	0.657
614.17	0.651
614.49	0.641
614.82	0.687
615.15	0.677
615.48	0.665
615.81	0.622
616.14	0.622
616.47	0.575
616.80	0.583
617.13	0.578
617.46	0.597
617.78	0.549
618.11	0.578
618.44	0.543
618.77	0.534
619.10	0.496
619.43	0.507
619.76	0.497
620.09	0.473
620.41	0.447
620.74	0.491
621.07	0.478
621.40	0.540
621.73	0.505
622.06	0.483
622.38	0.525
622.71	0.589
623.04	0.591
623.37	0.641
623.70	0.678
624.02	0.717
624.35	0.702
624.68	0.753
625.01	0.737
625.34	0.749
625.66	0.753
625.99	0.712
626.32	0.676
626.65	0.693
626.98	0.657
627.30	0.679
627.63	0.636
627.96	0.607
628.29	0.525
628.61	0.487
628.94	0.432
629.27	0.432
629.60	0.442
629.92	0.449
630.25	0.398
630.58	0.374
630.91	0.303
631.23	0.310
631.56	0.291
631.89	0.298
632.21	0.305
632.54	0.338
632.87	0.327
633.19	0.314
633.52	0.256
633.85	0.244
634.18	0.204
634.50	0.195
634.83	0.153
635.16	0.141
635.48	0.112
635.81	0.101
636.14	0.016
636.46	-0.034
636.79	-0.082
637.11	-0.073
637.44	-0.097
637.77	-0.107
638.09	-0.156
638.42	-0.184
638.75	-0.187
639.07	-0.220
639.40	-0.294
639.73	-0.285
640.05	-0.355
640.38	-0.361
640.70	-0.400
641.03	-0.419
641.36	-0.434
641.68	-0.415
642.01	-0.424
642.33	-0.382
642.66	-0.399
642.98	-0.364
643.31	-0.390
643.64	-0.351
643.96	-0.341
644.29	-0.311
644.61	-0.357
644.94	-0.331
645.26	-0.286
645.59	-0.248
645.91	-0.299
646.24	-0.280
646.56	-0.276
646.89	-0.235
647.22	-0.213
647.54	-0.199
647.87	-0.195
648.19	-0.126
648.52	-0.142
648.84	-0.202
649.17	-0.210
649.49	-0.227
649.82	-0.236
650.14	-0.243
650.47	-0.235
650.79	-0.215
651.11	-0.279
651.44	-0.303
651.76	-0.306
652.09	-0.267
652.41	-0.204
652.74	-0.255
653.06	-0.267
653.39	-0.256
653.71	-0.246
654.04	-0.213
654.36	-0.235
654.68	-0.192
655.01	-0.176
655.33	-0.143
655.66	-0.130
655.98	-0.127
656.30	-0.087
656.63	-0.056
656.95	-0.084
