OOIBase32 Version 2.0.0.6 Data File
++++++++++++++++++++++++++++++++++++
Date: 01-23-2012, 23:25:14
User: Valued Ocean Optics Customer
Spectrometer Serial Number: USB2E2917
Spectrometer Channel: Master
Integration Time (msec): 5
Spectra Averaged: 10
Boxcar Smoothing: 5
Correct for Electrical Dark: Enabled
Time Normalized: Disabled
Dual-beam Reference: Disabled
Reference Channel: Master
Temperature: Not acquired
Spectrometer Type: S2000
ADC Type: USB2000
Number of Pixels in File: 2048
Graph Title: 
>>>>>Begin Spectral Data<<<<<
180.30	0.000
180.67	0.000
181.03	49.079
181.40	-228.801
181.77	-6529.052
182.14	42.510
182.51	79.753
182.88	63.545
183.25	59.845
183.62	93.618
183.99	153.371
184.36	-3.725
184.73	320.885
185.10	127.517
185.46	184.997
185.83	349.865
186.20	1168.034
186.57	225.661
186.94	-3.755
187.31	32.289
187.68	-31.672
188.05	17.448
188.42	51.161
188.78	161.014
189.15	429.743
189.52	-85.373
189.89	-45.542
190.26	-9.149
190.63	10.218
191.00	23.300
191.37	18.303
191.73	19.684
192.10	19.358
192.47	19.801
192.84	18.811
193.21	25.474
193.58	27.446
193.94	40.340
194.31	38.935
194.68	32.795
195.05	23.833
195.42	25.063
195.79	36.075
196.15	44.812
196.52	39.496
196.89	51.240
197.26	41.544
197.63	52.691
198.00	40.401
198.36	39.204
198.73	29.538
199.10	31.599
199.47	27.103
199.84	18.466
200.20	3.470
200.57	5.974
200.94	-19.380
201.31	-17.275
201.68	-38.887
202.04	-22.163
202.41	-39.452
202.78	-43.006
203.15	-55.626
203.51	-42.738
203.88	-45.504
204.25	-37.918
204.62	-56.608
204.98	-31.565
205.35	-30.720
205.72	-37.279
206.09	-53.309
206.46	-79.692
206.82	-83.172
207.19	-83.853
207.56	-164.014
207.92	-131.357
208.29	-153.715
208.66	-75.647
209.03	-70.228
209.39	-48.211
209.76	-37.724
210.13	-73.033
210.50	-41.089
210.86	-18.352
211.23	-10.765
211.60	11.304
211.96	7.628
212.33	11.543
212.70	-12.789
213.07	-11.791
213.43	-48.303
213.80	-50.509
214.17	-23.539
214.53	-16.674
214.90	-15.612
215.27	-17.024
215.63	-24.277
216.00	-20.873
216.37	-23.267
216.74	-17.853
217.10	-16.744
217.47	-11.751
217.84	-8.979
218.20	-12.696
218.57	-15.486
218.94	-17.996
219.30	-20.759
219.67	-20.405
220.04	-13.975
220.40	-5.335
220.77	-12.444
221.13	-11.797
221.50	-10.853
221.87	-14.149
222.23	-19.818
222.60	-23.627
222.97	-21.573
223.33	-11.613
223.70	-11.736
224.07	-17.381
224.43	-18.187
224.80	-12.148
225.16	-10.687
225.53	-8.425
225.90	-9.407
226.26	-5.545
226.63	-3.224
226.99	-0.791
227.36	-0.931
227.73	2.237
228.09	2.518
228.46	3.967
228.82	3.954
229.19	4.359
229.56	4.731
229.92	7.437
230.29	8.858
230.65	9.143
231.02	7.451
231.38	3.393
231.75	-0.047
232.12	-0.230
232.48	-3.254
232.85	-2.810
233.21	-3.717
233.58	-4.859
233.94	-6.032
234.31	-7.251
234.68	-7.271
235.04	-7.503
235.41	-4.456
235.77	-1.821
236.14	-0.925
236.50	1.327
236.87	1.975
237.23	3.438
237.60	2.703
237.96	3.187
238.33	2.340
238.69	2.171
239.06	2.292
239.42	2.762
239.79	1.906
240.15	2.457
240.52	2.966
240.88	2.891
241.25	2.237
241.61	2.859
241.98	2.687
242.34	2.830
242.71	2.954
243.07	3.095
243.44	2.708
243.80	2.966
244.17	2.807
244.53	2.203
244.90	2.007
245.26	2.115
245.63	2.023
245.99	2.154
246.36	2.261
246.72	2.665
247.09	2.349
247.45	2.544
247.81	2.579
248.18	2.595
248.54	2.642
248.91	2.642
249.27	2.945
249.64	3.037
250.00	2.889
250.36	3.103
250.73	2.378
251.09	2.884
251.46	2.831
251.82	2.827
252.19	2.753
252.55	2.540
252.91	2.710
253.28	2.721
253.64	2.462
254.01	2.853
254.37	2.540
254.73	3.118
255.10	3.275
255.46	3.724
255.83	3.607
256.19	3.626
256.55	3.696
256.92	3.843
257.28	3.470
257.65	3.610
258.01	3.362
258.37	3.386
258.74	3.060
259.10	3.017
259.46	2.670
259.83	2.753
260.19	2.642
260.55	2.680
260.92	2.403
261.28	2.634
261.64	2.596
262.01	2.753
262.37	2.485
262.73	2.636
263.10	2.541
263.46	2.631
263.82	2.335
264.19	2.511
264.55	2.129
264.91	2.090
265.28	1.831
265.64	1.755
266.00	1.503
266.37	1.632
266.73	1.675
267.09	1.830
267.46	1.826
267.82	1.593
268.18	1.546
268.54	2.167
268.91	2.087
269.27	2.245
269.63	2.325
270.00	2.441
270.36	2.522
270.72	2.857
271.08	2.837
271.45	2.937
271.81	3.164
272.17	3.238
272.53	2.916
272.90	3.166
273.26	3.195
273.62	3.154
273.98	3.045
274.35	2.808
274.71	2.540
275.07	2.436
275.43	2.526
275.80	2.674
276.16	2.397
276.52	2.139
276.88	1.989
277.25	1.699
277.61	1.540
277.97	1.615
278.33	1.662
278.69	1.429
279.06	1.425
279.42	1.343
279.78	1.245
280.14	1.490
280.50	1.772
280.87	1.782
281.23	1.959
281.59	2.029
281.95	2.054
282.31	2.363
282.68	2.236
283.04	2.204
283.40	2.229
283.76	2.356
284.12	2.381
284.48	2.497
284.85	2.502
285.21	2.714
285.57	2.708
285.93	2.822
286.29	2.530
286.65	2.859
287.02	3.072
287.38	3.020
287.74	2.837
288.10	2.816
288.46	2.698
288.82	2.598
289.18	2.393
289.54	2.404
289.91	2.303
290.27	2.542
290.63	2.614
290.99	2.621
291.35	2.575
291.71	2.769
292.07	2.590
292.43	2.627
292.79	2.758
293.16	2.831
293.52	3.039
293.88	3.290
294.24	3.277
294.60	3.071
294.96	2.879
295.32	2.994
295.68	2.914
296.04	2.901
296.40	2.846
296.76	2.952
297.12	2.845
297.49	2.718
297.85	2.505
298.21	2.442
298.57	2.331
298.93	2.385
299.29	2.289
299.65	2.372
300.01	2.528
300.37	2.636
300.73	2.664
301.09	2.744
301.45	2.729
301.81	2.836
302.17	2.916
302.53	2.882
302.89	2.794
303.25	2.870
303.61	2.720
303.97	2.610
304.33	2.575
304.69	2.570
305.05	2.488
305.41	2.578
305.77	2.500
306.13	2.514
306.49	2.607
306.85	2.799
307.21	2.825
307.57	2.981
307.93	3.017
308.29	3.056
308.65	2.947
309.01	3.023
309.37	2.863
309.73	2.894
310.09	2.927
310.45	3.082
310.81	3.040
311.17	2.981
311.53	2.893
311.89	2.958
312.25	2.885
312.61	2.863
312.96	2.867
313.32	3.016
313.68	2.946
314.04	2.781
314.40	2.796
314.76	2.705
315.12	2.653
315.48	2.670
315.84	2.577
316.20	2.668
316.56	2.642
316.92	2.608
317.27	2.466
317.63	2.573
317.99	2.542
318.35	2.433
318.71	2.478
319.07	2.670
319.43	2.702
319.79	2.859
320.15	2.719
320.50	2.796
320.86	2.671
321.22	2.759
321.58	2.723
321.94	2.836
322.30	2.767
322.66	2.786
323.01	2.597
323.37	2.577
323.73	2.455
324.09	2.509
324.45	2.561
324.81	2.622
325.17	2.577
325.52	2.499
325.88	2.377
326.24	2.517
326.60	2.513
326.96	2.523
327.31	2.432
327.67	2.339
328.03	2.269
328.39	2.167
328.75	2.215
329.11	2.308
329.46	2.464
329.82	2.638
330.18	2.556
330.54	2.507
330.90	2.532
331.25	2.576
331.61	2.719
331.97	2.824
332.33	2.821
332.68	2.895
333.04	2.783
333.40	2.632
333.76	2.499
334.11	2.453
334.47	2.451
334.83	2.400
335.19	2.402
335.54	2.351
335.90	2.272
336.26	2.288
336.62	2.128
336.97	2.136
337.33	2.100
337.69	2.113
338.05	2.113
338.40	2.068
338.76	2.067
339.12	2.138
339.48	2.063
339.83	2.136
340.19	2.100
340.55	2.274
340.90	2.248
341.26	2.252
341.62	2.231
341.97	2.259
342.33	2.249
342.69	2.342
343.04	2.276
343.40	2.241
343.76	2.108
344.12	2.143
344.47	2.035
344.83	2.120
345.19	2.149
345.54	2.222
345.90	2.214
346.26	2.341
346.61	2.305
346.97	2.283
347.32	2.357
347.68	2.443
348.04	2.387
348.39	2.378
348.75	2.282
349.11	2.279
349.46	2.200
349.82	2.183
350.18	2.053
350.53	2.091
350.89	2.100
351.24	2.007
351.60	1.974
351.96	2.082
352.31	2.059
352.67	2.148
353.02	2.086
353.38	2.109
353.74	2.134
354.09	2.201
354.45	2.141
354.80	2.126
355.16	2.246
355.52	2.280
355.87	2.159
356.23	2.201
356.58	2.174
356.94	2.216
357.29	2.241
357.65	2.225
358.00	2.187
358.36	2.195
358.72	2.225
359.07	2.207
359.43	2.221
359.78	2.295
360.14	2.245
360.49	2.245
360.85	2.259
361.20	2.244
361.56	2.244
361.91	2.269
362.27	2.247
362.62	2.244
362.98	2.223
363.33	2.215
363.69	2.168
364.04	2.223
364.40	2.235
364.75	2.258
365.11	2.288
365.46	2.279
365.82	2.279
366.17	2.315
366.53	2.311
366.88	2.338
367.24	2.337
367.59	2.341
367.95	2.343
368.30	2.330
368.66	2.338
369.01	2.310
369.37	2.307
369.72	2.335
370.08	2.365
370.43	2.380
370.78	2.367
371.14	2.369
371.49	2.418
371.85	2.349
372.20	2.369
372.56	2.357
372.91	2.375
373.26	2.435
373.62	2.381
373.97	2.414
374.33	2.395
374.68	2.442
375.03	2.453
375.39	2.433
375.74	2.465
376.10	2.460
376.45	2.448
376.80	2.447
377.16	2.410
377.51	2.479
377.87	2.446
378.22	2.437
378.57	2.402
378.93	2.391
379.28	2.426
379.63	2.465
379.99	2.519
380.34	2.554
380.70	2.547
381.05	2.606
381.40	2.554
381.76	2.561
382.11	2.589
382.46	2.610
382.82	2.636
383.17	2.616
383.52	2.604
383.88	2.552
384.23	2.515
384.58	2.531
384.94	2.488
385.29	2.542
385.64	2.550
385.99	2.578
386.35	2.603
386.70	2.582
387.05	2.546
387.41	2.567
387.76	2.560
388.11	2.563
388.47	2.537
388.82	2.534
389.17	2.519
389.52	2.521
389.88	2.524
390.23	2.507
390.58	2.553
390.93	2.603
391.29	2.588
391.64	2.644
391.99	2.681
392.34	2.716
392.70	2.713
393.05	2.693
393.40	2.665
393.75	2.627
394.11	2.615
394.46	2.561
394.81	2.538
395.16	2.523
395.52	2.486
395.87	2.483
396.22	2.463
396.57	2.427
396.92	2.406
397.28	2.405
397.63	2.376
397.98	2.393
398.33	2.387
398.68	2.382
399.04	2.377
399.39	2.367
399.74	2.339
400.09	2.320
400.44	2.357
400.80	2.363
401.15	2.368
401.50	2.417
401.85	2.404
402.20	2.403
402.55	2.429
402.90	2.440
403.26	2.439
403.61	2.438
403.96	2.458
404.31	2.450
404.66	2.470
405.01	2.477
405.36	2.459
405.72	2.475
406.07	2.470
406.42	2.438
406.77	2.440
407.12	2.451
407.47	2.468
407.82	2.473
408.17	2.455
408.53	2.444
408.88	2.431
409.23	2.432
409.58	2.395
409.93	2.456
410.28	2.460
410.63	2.468
410.98	2.419
411.33	2.417
411.68	2.420
412.03	2.482
412.38	2.482
412.73	2.530
413.09	2.564
413.44	2.628
413.79	2.594
414.14	2.632
414.49	2.658
414.84	2.728
415.19	2.745
415.54	2.761
415.89	2.750
416.24	2.819
416.59	2.821
416.94	2.836
417.29	2.837
417.64	2.851
417.99	2.862
418.34	2.883
418.69	2.891
419.04	2.890
419.39	2.908
419.74	2.924
420.09	2.917
420.44	2.926
420.79	2.929
421.14	2.940
421.49	2.966
421.84	2.963
422.19	2.967
422.54	2.969
422.89	2.985
423.24	2.991
423.59	2.978
423.94	2.950
424.29	2.942
424.64	2.929
424.99	2.912
425.34	2.881
425.68	2.873
426.03	2.829
426.38	2.801
426.73	2.808
427.08	2.790
427.43	2.811
427.78	2.823
428.13	2.816
428.48	2.824
428.83	2.818
429.18	2.832
429.53	2.843
429.87	2.857
430.22	2.863
430.57	2.855
430.92	2.848
431.27	2.852
431.62	2.847
431.97	2.858
432.32	2.850
432.67	2.859
433.01	2.844
433.36	2.833
433.71	2.827
434.06	2.810
434.41	2.794
434.76	2.787
435.11	2.784
435.45	2.794
435.80	2.799
436.15	2.818
436.50	2.839
436.85	2.859
437.20	2.868
437.54	2.874
437.89	2.905
438.24	2.917
438.59	2.940
438.94	2.933
439.29	2.933
439.63	2.938
439.98	2.931
440.33	2.913
440.68	2.920
441.03	2.934
441.37	2.961
441.72	2.962
442.07	2.976
442.42	2.970
442.76	3.008
443.11	3.028
443.46	3.038
443.81	3.055
444.16	3.078
444.50	3.081
444.85	3.073
445.20	3.045
445.55	3.043
445.89	3.040
446.24	3.054
446.59	3.017
446.94	3.001
447.28	2.979
447.63	2.959
447.98	2.924
448.32	2.921
448.67	2.913
449.02	2.914
449.37	2.891
449.71	2.890
450.06	2.868
450.41	2.855
450.75	2.849
451.10	2.854
451.45	2.838
451.79	2.831
452.14	2.809
452.49	2.811
452.84	2.804
453.18	2.811
453.53	2.792
453.88	2.783
454.22	2.798
454.57	2.813
454.92	2.825
455.26	2.858
455.61	2.914
455.95	2.941
456.30	2.958
456.65	2.999
456.99	3.025
457.34	3.059
457.69	3.095
458.03	3.120
458.38	3.145
458.73	3.149
459.07	3.135
459.42	3.097
459.76	3.076
460.11	3.062
460.46	3.024
460.80	3.002
461.15	2.969
461.49	2.927
461.84	2.909
462.19	2.861
462.53	2.853
462.88	2.873
463.22	2.879
463.57	2.886
463.91	2.875
464.26	2.906
464.61	2.929
464.95	2.931
465.30	2.944
465.64	2.953
465.99	2.984
466.33	3.004
466.68	3.000
467.02	3.002
467.37	3.012
467.71	3.028
468.06	3.024
468.41	3.008
468.75	3.015
469.10	3.021
469.44	2.998
469.79	2.965
470.13	2.918
470.48	2.906
470.82	2.908
471.17	2.894
471.51	2.873
471.86	2.862
472.20	2.849
472.55	2.843
472.89	2.826
473.23	2.839
473.58	2.854
473.92	2.868
474.27	2.851
474.61	2.838
474.96	2.850
475.30	2.867
475.65	2.854
475.99	2.858
476.34	2.848
476.68	2.853
477.02	2.861
477.37	2.867
477.71	2.889
478.06	2.942
478.40	3.012
478.75	3.100
479.09	3.187
479.43	3.303
479.78	3.416
480.12	3.543
480.47	3.662
480.81	3.765
481.15	3.865
481.50	3.977
481.84	4.090
482.19	4.197
482.53	4.286
482.87	4.352
483.22	4.364
483.56	4.325
483.90	4.250
484.25	4.158
484.59	4.064
484.94	3.976
485.28	3.887
485.62	3.780
485.97	3.673
486.31	3.587
486.65	3.510
487.00	3.469
487.34	3.474
487.68	3.485
488.03	3.508
488.37	3.535
488.71	3.551
489.06	3.548
489.40	3.545
489.74	3.534
490.09	3.507
490.43	3.485
490.77	3.454
491.11	3.410
491.46	3.381
491.80	3.348
492.14	3.299
492.49	3.268
492.83	3.213
493.17	3.171
493.51	3.127
493.86	3.100
494.20	3.070
494.54	3.061
494.88	3.066
495.23	3.072
495.57	3.079
495.91	3.099
496.25	3.099
496.60	3.118
496.94	3.111
497.28	3.103
497.62	3.087
497.97	3.096
498.31	3.092
498.65	3.089
498.99	3.083
499.33	3.084
499.68	3.077
500.02	3.073
500.36	3.073
500.70	3.089
501.04	3.080
501.39	3.073
501.73	3.065
502.07	3.076
502.41	3.088
502.75	3.115
503.09	3.129
503.44	3.135
503.78	3.142
504.12	3.150
504.46	3.163
504.80	3.202
505.14	3.243
505.49	3.275
505.83	3.280
506.17	3.299
506.51	3.293
506.85	3.307
507.19	3.322
507.53	3.326
507.87	3.345
508.22	3.335
508.56	3.349
508.90	3.347
509.24	3.342
509.58	3.351
509.92	3.340
510.26	3.351
510.60	3.342
510.94	3.338
511.28	3.341
511.63	3.335
511.97	3.355
512.31	3.356
512.65	3.344
512.99	3.350
513.33	3.384
513.67	3.419
514.01	3.463
514.35	3.506
514.69	3.559
515.03	3.599
515.37	3.647
515.71	3.688
516.05	3.708
516.39	3.748
516.73	3.784
517.07	3.801
517.41	3.806
517.75	3.790
518.09	3.777
518.43	3.757
518.77	3.743
519.11	3.708
519.45	3.669
519.79	3.663
520.13	3.635
520.47	3.619
520.81	3.602
521.15	3.634
521.49	3.647
521.83	3.679
522.17	3.713
522.51	3.769
522.85	3.846
523.19	3.938
523.53	4.020
523.87	4.136
524.21	4.227
524.55	4.322
524.89	4.394
525.23	4.476
525.57	4.541
525.91	4.611
526.25	4.664
526.58	4.715
526.92	4.747
527.26	4.775
527.60	4.775
527.94	4.778
528.28	4.763
528.62	4.740
528.96	4.720
529.30	4.703
529.64	4.666
529.97	4.631
530.31	4.582
530.65	4.550
530.99	4.522
531.33	4.512
531.67	4.485
532.01	4.482
532.35	4.477
532.68	4.475
533.02	4.457
533.36	4.451
533.70	4.439
534.04	4.431
534.38	4.414
534.71	4.400
535.05	4.362
535.39	4.363
535.73	4.346
536.07	4.360
536.41	4.354
536.74	4.380
537.08	4.396
537.42	4.443
537.76	4.492
538.10	4.535
538.43	4.572
538.77	4.628
539.11	4.664
539.45	4.710
539.79	4.735
540.12	4.771
540.46	4.776
540.80	4.794
541.14	4.785
541.47	4.765
541.81	4.766
542.15	4.752
542.49	4.720
542.82	4.697
543.16	4.663
543.50	4.630
543.84	4.587
544.17	4.556
544.51	4.533
544.85	4.513
545.18	4.493
545.52	4.459
545.86	4.432
546.20	4.423
546.53	4.406
546.87	4.377
547.21	4.354
547.54	4.321
547.88	4.304
548.22	4.268
548.55	4.258
548.89	4.245
549.23	4.244
549.56	4.249
549.90	4.243
550.24	4.254
550.57	4.272
550.91	4.274
551.25	4.293
551.58	4.301
551.92	4.299
552.26	4.293
552.59	4.299
552.93	4.293
553.27	4.301
553.60	4.316
553.94	4.271
554.27	4.272
554.61	4.281
554.95	4.282
555.28	4.302
555.62	4.319
555.95	4.333
556.29	4.368
556.63	4.370
556.96	4.383
557.30	4.393
557.63	4.433
557.97	4.436
558.31	4.445
558.64	4.441
558.98	4.458
559.31	4.482
559.65	4.491
559.98	4.492
560.32	4.521
560.65	4.513
560.99	4.524
561.33	4.523
561.66	4.535
562.00	4.565
562.33	4.612
562.67	4.635
563.00	4.645
563.34	4.672
563.67	4.684
564.01	4.688
564.34	4.720
564.68	4.737
565.01	4.779
565.35	4.798
565.68	4.795
566.02	4.796
566.35	4.791
566.69	4.777
567.02	4.784
567.36	4.802
567.69	4.831
568.03	4.838
568.36	4.839
568.69	4.847
569.03	4.864
569.36	4.888
569.70	4.896
570.03	4.923
570.37	4.949
570.70	4.945
571.04	4.950
571.37	4.939
571.70	4.956
572.04	4.972
572.37	4.982
572.71	4.991
573.04	5.003
573.37	5.016
573.71	5.015
574.04	5.029
574.38	5.034
574.71	5.034
575.04	5.048
575.38	5.030
575.71	5.020
576.05	4.994
576.38	4.979
576.71	4.941
577.05	4.927
577.38	4.888
577.71	4.875
578.05	4.858
578.38	4.837
578.71	4.800
579.05	4.789
579.38	4.774
579.71	4.782
580.05	4.756
580.38	4.767
580.71	4.749
581.05	4.787
581.38	4.775
581.71	4.807
582.05	4.818
582.38	4.847
582.71	4.845
583.04	4.875
583.38	4.856
583.71	4.886
584.04	4.897
584.38	4.920
584.71	4.928
585.04	4.975
585.37	4.974
585.71	5.002
586.04	5.009
586.37	5.063
586.70	5.069
587.04	5.100
587.37	5.088
587.70	5.123
588.03	5.150
588.37	5.175
588.70	5.160
589.03	5.181
589.36	5.172
589.69	5.185
590.03	5.160
590.36	5.156
590.69	5.158
591.02	5.193
591.35	5.161
591.69	5.158
592.02	5.170
592.35	5.197
592.68	5.206
593.01	5.210
593.35	5.211
593.68	5.241
594.01	5.255
594.34	5.261
594.67	5.259
595.00	5.265
595.34	5.258
595.67	5.224
596.00	5.213
596.33	5.172
596.66	5.162
596.99	5.148
597.32	5.103
597.65	5.091
597.99	5.042
598.32	4.999
598.65	4.975
598.98	4.962
599.31	4.962
599.64	4.967
599.97	4.998
600.30	5.030
600.63	5.040
600.96	5.079
601.30	5.102
601.63	5.162
601.96	5.195
602.29	5.223
602.62	5.241
602.95	5.243
603.28	5.240
603.61	5.235
603.94	5.223
604.27	5.243
604.60	5.222
604.93	5.229
605.26	5.200
605.59	5.202
605.92	5.196
606.25	5.173
606.58	5.183
606.91	5.162
607.24	5.165
607.57	5.165
607.90	5.143
608.23	5.133
608.56	5.104
608.89	5.099
609.22	5.076
609.55	5.054
609.88	5.059
610.21	5.032
610.54	5.013
610.87	4.991
611.20	4.947
611.53	4.932
611.86	4.904
612.19	4.860
612.52	4.822
612.85	4.845
613.18	4.832
613.51	4.798
613.84	4.757
614.17	4.746
614.49	4.751
614.82	4.721
615.15	4.715
615.48	4.735
615.81	4.739
616.14	4.788
616.47	4.716
616.80	4.700
617.13	4.720
617.46	4.743
617.78	4.753
618.11	4.718
618.44	4.742
618.77	4.736
619.10	4.713
619.43	4.731
619.76	4.702
620.09	4.766
620.41	4.776
620.74	4.794
621.07	4.836
621.40	4.879
621.73	4.903
622.06	4.948
622.38	4.995
622.71	5.058
623.04	5.104
623.37	5.151
623.70	5.173
624.02	5.238
624.35	5.267
624.68	5.268
625.01	5.301
625.34	5.368
625.66	5.403
625.99	5.413
626.32	5.410
626.65	5.402
626.98	5.411
627.30	5.410
627.63	5.393
627.96	5.348
628.29	5.333
628.61	5.301
628.94	5.269
629.27	5.217
629.60	5.145
629.92	5.160
630.25	5.125
630.58	5.103
630.91	5.094
631.23	5.075
631.56	5.107
631.89	5.098
632.21	5.082
632.54	5.065
632.87	5.052
633.19	5.087
633.52	5.054
633.85	5.094
634.18	5.053
634.50	5.034
634.83	5.033
635.16	4.980
635.48	4.955
635.81	4.920
636.14	4.876
636.46	4.873
636.79	4.878
637.11	4.868
637.44	4.799
637.77	4.829
638.09	4.812
638.42	4.788
638.75	4.799
639.07	4.789
639.40	4.841
639.73	4.854
640.05	4.855
640.38	4.834
640.70	4.811
641.03	4.835
641.36	4.838
641.68	4.842
642.01	4.855
642.33	4.855
642.66	4.913
642.98	4.899
643.31	4.921
643.64	4.927
643.96	4.955
644.29	4.980
644.61	4.991
644.94	5.011
645.26	5.040
645.59	5.114
645.91	5.170
646.24	5.203
646.56	5.199
646.89	5.229
647.22	5.241
647.54	5.257
647.87	5.278
648.19	5.292
648.52	5.269
648.84	5.326
649.17	5.254
649.49	5.243
649.82	5.211
650.14	5.254
650.47	5.217
650.79	5.277
651.11	5.244
651.44	5.237
651.76	5.237
652.09	5.295
652.41	5.283
652.74	5.337
653.06	5.310
653.39	5.329
653.71	5.334
654.04	5.370
654.36	5.361
654.68	5.447
655.01	5.481
655.33	5.525
655.66	5.526
655.98	5.550
656.30	5.551
656.63	5.617
656.95	5.658
657.28	5.673
657.60	5.673
657.92	5.661
658.25	5.630
