OOIBase32 Version 2.0.0.6 Data File
++++++++++++++++++++++++++++++++++++
Date: 01-23-2012, 23:23:19
User: Valued Ocean Optics Customer
Spectrometer Serial Number: USB2E2917
Spectrometer Channel: Master
Integration Time (msec): 5
Spectra Averaged: 10
Boxcar Smoothing: 5
Correct for Electrical Dark: Enabled
Time Normalized: Disabled
Dual-beam Reference: Disabled
Reference Channel: Master
Temperature: Not acquired
Spectrometer Type: S2000
ADC Type: USB2000
Number of Pixels in File: 2048
Graph Title: 
>>>>>Begin Spectral Data<<<<<
180.30	0.000
180.67	0.000
181.03	65.489
181.40	974.055
181.77	-351.147
182.14	23.597
182.51	-718.271
182.88	-56.026
183.25	21.072
183.62	42.620
183.99	-33.663
184.36	10.645
184.73	393.570
185.10	36.199
185.46	-560.402
185.83	33.744
186.20	38.924
186.57	83.855
186.94	103.489
187.31	50.213
187.68	150.000
188.05	148.792
188.42	199.082
188.78	347.842
189.15	1084.053
189.52	-308.118
189.89	-94.518
190.26	-67.899
190.63	-35.290
191.00	-21.605
191.37	-8.239
191.73	7.202
192.10	4.205
192.47	7.382
192.84	8.551
193.21	7.084
193.58	3.106
193.94	-3.821
194.31	4.025
194.68	2.987
195.05	-1.964
195.42	5.696
195.79	1.827
196.15	1.474
196.52	-15.128
196.89	-13.975
197.26	-18.239
197.63	-3.933
198.00	-4.139
198.36	10.655
198.73	-9.389
199.10	2.882
199.47	-8.013
199.84	-13.869
200.20	-21.436
200.57	-4.941
200.94	-11.082
201.31	0.392
201.68	4.409
202.04	14.452
202.41	-3.007
202.78	3.873
203.15	-0.864
203.51	20.127
203.88	4.158
204.25	12.974
204.62	-10.830
204.98	-29.653
205.35	-33.204
205.72	-50.317
206.09	-47.130
206.46	-86.771
206.82	-73.639
207.19	-83.049
207.56	-169.225
207.92	-126.445
208.29	-141.388
208.66	-85.789
209.03	-80.725
209.39	-57.350
209.76	-48.990
210.13	-91.598
210.50	-55.342
210.86	-45.756
211.23	-45.325
211.60	-25.372
211.96	-32.031
212.33	-31.011
212.70	-41.225
213.07	-26.260
213.43	-55.563
213.80	-66.504
214.17	-38.319
214.53	-35.801
214.90	-42.548
215.27	-35.111
215.63	-34.215
216.00	-29.994
216.37	-25.212
216.74	-29.817
217.10	-29.719
217.47	-28.349
217.84	-17.044
218.20	-15.857
218.57	-9.857
218.94	-1.018
219.30	-4.375
219.67	-6.155
220.04	-5.307
220.40	-3.200
220.77	0.057
221.13	3.450
221.50	3.847
221.87	3.040
222.23	-2.754
222.60	-5.904
222.97	-8.721
223.33	-5.936
223.70	-5.518
224.07	-2.268
224.43	-4.862
224.80	-3.036
225.16	-6.246
225.53	-4.486
225.90	-6.383
226.26	-3.855
226.63	-1.214
226.99	1.284
227.36	2.416
227.73	4.976
228.09	4.053
228.46	6.018
228.82	6.238
229.19	7.662
229.56	7.043
229.92	9.193
230.29	10.365
230.65	9.028
231.02	6.398
231.38	3.853
231.75	0.016
232.12	-2.285
232.48	-4.121
232.85	-4.797
233.21	-6.305
233.58	-7.303
233.94	-8.229
234.31	-9.753
234.68	-9.042
235.04	-8.193
235.41	-6.563
235.77	-4.840
236.14	-1.844
236.50	-0.416
236.87	-0.059
237.23	0.924
237.60	0.781
237.96	1.055
238.33	0.746
238.69	0.793
239.06	0.914
239.42	0.402
239.79	-0.067
240.15	-0.191
240.52	-0.319
240.88	-0.048
241.25	-0.083
241.61	1.115
241.98	0.869
242.34	1.022
242.71	1.475
243.07	1.581
243.44	1.633
243.80	1.671
244.17	1.569
244.53	1.219
244.90	1.151
245.26	1.248
245.63	0.796
245.99	0.629
246.36	0.551
246.72	0.473
247.09	0.137
247.45	0.177
247.81	0.468
248.18	0.343
248.54	0.497
248.91	0.083
249.27	0.218
249.64	0.744
250.00	1.061
250.36	1.156
250.73	0.731
251.09	0.935
251.46	1.377
251.82	0.890
252.19	0.602
252.55	0.368
252.91	0.678
253.28	0.143
253.64	-0.865
254.01	-0.942
254.37	-1.051
254.73	-0.633
255.10	-0.355
255.46	-0.296
255.83	0.089
256.19	0.674
256.55	0.593
256.92	0.878
257.28	0.886
257.65	1.125
258.01	1.159
258.37	1.275
258.74	1.211
259.10	1.090
259.46	1.039
259.83	1.080
260.19	1.004
260.55	1.192
260.92	0.898
261.28	0.859
261.64	0.828
262.01	0.911
262.37	0.965
262.73	1.003
263.10	1.309
263.46	1.381
263.82	1.182
264.19	1.026
264.55	0.851
264.91	1.007
265.28	1.087
265.64	1.012
266.00	0.975
266.37	0.945
266.73	0.913
267.09	0.861
267.46	0.667
267.82	0.449
268.18	0.462
268.54	0.897
268.91	0.826
269.27	0.888
269.63	0.973
270.00	0.983
270.36	0.907
270.72	1.040
271.08	1.072
271.45	1.119
271.81	1.192
272.17	1.135
272.53	0.933
272.90	1.120
273.26	1.168
273.62	0.977
273.98	0.882
274.35	0.699
274.71	0.829
275.07	0.827
275.43	0.777
275.80	0.937
276.16	0.842
276.52	0.852
276.88	0.756
277.25	0.743
277.61	0.618
277.97	0.611
278.33	1.085
278.69	0.763
279.06	0.676
279.42	0.852
279.78	0.763
280.14	0.945
280.50	1.068
280.87	0.934
281.23	0.862
281.59	1.172
281.95	1.374
282.31	1.256
282.68	1.212
283.04	1.204
283.40	1.260
283.76	1.331
284.12	1.452
284.48	1.435
284.85	1.493
285.21	1.551
285.57	1.444
285.93	1.358
286.29	1.239
286.65	1.480
287.02	1.669
287.38	1.477
287.74	1.490
288.10	1.383
288.46	1.261
288.82	1.233
289.18	1.218
289.54	1.298
289.91	1.338
290.27	1.447
290.63	1.348
290.99	1.363
291.35	1.642
291.71	1.792
292.07	1.744
292.43	1.739
292.79	1.812
293.16	1.919
293.52	2.033
293.88	2.137
294.24	2.148
294.60	2.181
294.96	2.071
295.32	2.058
295.68	1.978
296.04	2.033
296.40	2.178
296.76	2.255
297.12	2.148
297.49	2.012
297.85	1.931
298.21	1.877
298.57	1.646
298.93	1.668
299.29	1.410
299.65	1.447
300.01	1.332
300.37	1.217
300.73	1.283
301.09	1.401
301.45	1.499
301.81	1.596
302.17	1.676
302.53	1.682
302.89	1.802
303.25	1.988
303.61	1.892
303.97	1.953
304.33	2.042
304.69	1.996
305.05	1.821
305.41	1.599
305.77	1.511
306.13	1.380
306.49	1.528
306.85	1.489
307.21	1.528
307.57	1.594
307.93	1.645
308.29	1.739
308.65	1.732
309.01	1.754
309.37	1.946
309.73	1.957
310.09	2.137
310.45	2.234
310.81	2.241
311.17	2.237
311.53	2.214
311.89	2.370
312.25	2.287
312.61	2.238
312.96	2.327
313.32	2.381
313.68	2.336
314.04	2.237
314.40	2.293
314.76	2.216
315.12	2.146
315.48	2.176
315.84	2.051
316.20	1.983
316.56	1.990
316.92	1.977
317.27	1.899
317.63	1.934
317.99	2.005
318.35	1.938
318.71	1.959
319.07	2.042
319.43	2.060
319.79	2.016
320.15	2.054
320.50	2.048
320.86	2.037
321.22	1.992
321.58	2.004
321.94	1.961
322.30	1.897
322.66	1.855
323.01	1.765
323.37	1.767
323.73	1.791
324.09	1.732
324.45	1.783
324.81	1.664
325.17	1.818
325.52	1.779
325.88	1.778
326.24	1.854
326.60	1.980
326.96	2.106
327.31	2.119
327.67	2.048
328.03	2.101
328.39	2.058
328.75	2.213
329.11	2.221
329.46	2.314
329.82	2.303
330.18	2.290
330.54	2.212
330.90	2.115
331.25	2.152
331.61	2.272
331.97	2.259
332.33	2.372
332.68	2.396
333.04	2.314
333.40	2.191
333.76	2.192
334.11	2.154
334.47	2.154
334.83	2.109
335.19	2.033
335.54	2.009
335.90	2.004
336.26	1.934
336.62	1.904
336.97	1.867
337.33	1.842
337.69	1.833
338.05	1.807
338.40	1.831
338.76	1.922
339.12	1.989
339.48	1.965
339.83	2.013
340.19	1.990
340.55	2.041
340.90	1.996
341.26	2.062
341.62	2.067
341.97	2.113
342.33	2.129
342.69	2.138
343.04	2.110
343.40	2.068
343.76	2.074
344.12	2.067
344.47	2.057
344.83	2.162
345.19	2.226
345.54	2.244
345.90	2.256
346.26	2.301
346.61	2.349
346.97	2.423
347.32	2.470
347.68	2.484
348.04	2.514
348.39	2.429
348.75	2.437
349.11	2.378
349.46	2.295
349.82	2.271
350.18	2.221
350.53	2.207
350.89	2.186
351.24	2.144
351.60	2.123
351.96	2.116
352.31	2.178
352.67	2.161
353.02	2.140
353.38	2.255
353.74	2.306
354.09	2.280
354.45	2.242
354.80	2.223
355.16	2.320
355.52	2.311
355.87	2.259
356.23	2.243
356.58	2.265
356.94	2.336
357.29	2.308
357.65	2.322
358.00	2.392
358.36	2.429
358.72	2.432
359.07	2.427
359.43	2.443
359.78	2.501
360.14	2.542
360.49	2.518
360.85	2.530
361.20	2.549
361.56	2.503
361.91	2.445
362.27	2.460
362.62	2.485
362.98	2.501
363.33	2.499
363.69	2.535
364.04	2.550
364.40	2.574
364.75	2.555
365.11	2.524
365.46	2.515
365.82	2.561
366.17	2.532
366.53	2.554
366.88	2.553
367.24	2.595
367.59	2.568
367.95	2.585
368.30	2.606
368.66	2.626
369.01	2.660
369.37	2.707
369.72	2.728
370.08	2.770
370.43	2.731
370.78	2.737
371.14	2.731
371.49	2.770
371.85	2.743
372.20	2.728
372.56	2.712
372.91	2.730
373.26	2.754
373.62	2.673
373.97	2.670
374.33	2.687
374.68	2.663
375.03	2.674
375.39	2.629
375.74	2.643
376.10	2.685
376.45	2.725
376.80	2.760
377.16	2.716
377.51	2.797
377.87	2.839
378.22	2.811
378.57	2.828
378.93	2.837
379.28	2.903
379.63	2.912
379.99	2.922
380.34	2.935
380.70	2.907
381.05	2.985
381.40	2.980
381.76	2.990
382.11	3.075
382.46	3.142
382.82	3.166
383.17	3.173
383.52	3.199
383.88	3.191
384.23	3.184
384.58	3.203
384.94	3.171
385.29	3.185
385.64	3.206
385.99	3.216
386.35	3.196
386.70	3.207
387.05	3.182
387.41	3.202
387.76	3.205
388.11	3.211
388.47	3.217
388.82	3.256
389.17	3.259
389.52	3.237
389.88	3.248
390.23	3.266
390.58	3.300
390.93	3.360
391.29	3.360
391.64	3.399
391.99	3.473
392.34	3.496
392.70	3.464
393.05	3.468
393.40	3.486
393.75	3.455
394.11	3.434
394.46	3.380
394.81	3.346
395.16	3.305
395.52	3.301
395.87	3.252
396.22	3.265
396.57	3.258
396.92	3.259
397.28	3.237
397.63	3.245
397.98	3.230
398.33	3.223
398.68	3.240
399.04	3.289
399.39	3.249
399.74	3.238
400.09	3.215
400.44	3.233
400.80	3.229
401.15	3.232
401.50	3.234
401.85	3.249
402.20	3.278
402.55	3.307
402.90	3.272
403.26	3.304
403.61	3.303
403.96	3.306
404.31	3.325
404.66	3.336
405.01	3.330
405.36	3.369
405.72	3.367
406.07	3.363
406.42	3.320
406.77	3.342
407.12	3.332
407.47	3.329
407.82	3.350
408.17	3.339
408.53	3.364
408.88	3.364
409.23	3.325
409.58	3.317
409.93	3.324
410.28	3.343
410.63	3.340
410.98	3.337
411.33	3.347
411.68	3.351
412.03	3.392
412.38	3.371
412.73	3.403
413.09	3.427
413.44	3.458
413.79	3.493
414.14	3.531
414.49	3.579
414.84	3.612
415.19	3.642
415.54	3.667
415.89	3.670
416.24	3.718
416.59	3.743
416.94	3.766
417.29	3.794
417.64	3.789
417.99	3.801
418.34	3.804
418.69	3.828
419.04	3.839
419.39	3.859
419.74	3.879
420.09	3.890
420.44	3.904
420.79	3.915
421.14	3.922
421.49	3.943
421.84	3.957
422.19	3.968
422.54	3.960
422.89	3.963
423.24	3.956
423.59	3.950
423.94	3.949
424.29	3.940
424.64	3.937
424.99	3.934
425.34	3.921
425.68	3.887
426.03	3.886
426.38	3.899
426.73	3.914
427.08	3.908
427.43	3.915
427.78	3.927
428.13	3.927
428.48	3.940
428.83	3.948
429.18	3.964
429.53	3.988
429.87	3.979
430.22	3.949
430.57	3.961
430.92	3.957
431.27	3.981
431.62	3.964
431.97	3.969
432.32	3.980
432.67	3.985
433.01	3.979
433.36	3.982
433.71	3.988
434.06	4.001
434.41	3.993
434.76	4.024
435.11	4.011
435.45	4.011
435.80	4.015
436.15	4.013
436.50	4.035
436.85	4.064
437.20	4.078
437.54	4.095
437.89	4.121
438.24	4.139
438.59	4.150
438.94	4.158
439.29	4.154
439.63	4.170
439.98	4.177
440.33	4.174
440.68	4.172
441.03	4.179
441.37	4.202
441.72	4.208
442.07	4.210
442.42	4.219
442.76	4.251
443.11	4.280
443.46	4.311
443.81	4.332
444.16	4.350
444.50	4.357
444.85	4.371
445.20	4.370
445.55	4.387
445.89	4.405
446.24	4.403
446.59	4.379
446.94	4.395
447.28	4.385
447.63	4.388
447.98	4.384
448.32	4.390
448.67	4.380
449.02	4.367
449.37	4.340
449.71	4.346
450.06	4.341
450.41	4.382
450.75	4.374
451.10	4.370
451.45	4.343
451.79	4.352
452.14	4.343
452.49	4.354
452.84	4.366
453.18	4.389
453.53	4.365
453.88	4.377
454.22	4.368
454.57	4.367
454.92	4.379
455.26	4.416
455.61	4.440
455.95	4.481
456.30	4.495
456.65	4.524
456.99	4.549
457.34	4.581
457.69	4.602
458.03	4.612
458.38	4.652
458.73	4.676
459.07	4.680
459.42	4.662
459.76	4.657
460.11	4.646
460.46	4.631
460.80	4.609
461.15	4.593
461.49	4.580
461.84	4.582
462.19	4.549
462.53	4.534
462.88	4.550
463.22	4.570
463.57	4.580
463.91	4.591
464.26	4.612
464.61	4.634
464.95	4.635
465.30	4.646
465.64	4.647
465.99	4.678
466.33	4.693
466.68	4.693
467.02	4.695
467.37	4.691
467.71	4.701
468.06	4.704
468.41	4.703
468.75	4.719
469.10	4.725
469.44	4.728
469.79	4.715
470.13	4.685
470.48	4.665
470.82	4.651
471.17	4.674
471.51	4.666
471.86	4.653
472.20	4.660
472.55	4.677
472.89	4.678
473.23	4.674
473.58	4.677
473.92	4.703
474.27	4.701
474.61	4.713
474.96	4.715
475.30	4.732
475.65	4.737
475.99	4.732
476.34	4.725
476.68	4.725
477.02	4.751
477.37	4.762
477.71	4.798
478.06	4.844
478.40	4.909
478.75	4.961
479.09	5.059
479.43	5.170
479.78	5.318
480.12	5.455
480.47	5.599
480.81	5.730
481.15	5.865
481.50	6.003
481.84	6.151
482.19	6.306
482.53	6.446
482.87	6.536
483.22	6.562
483.56	6.505
483.90	6.417
484.25	6.295
484.59	6.162
484.94	6.047
485.28	5.933
485.62	5.803
485.97	5.655
486.31	5.539
486.65	5.448
487.00	5.410
487.34	5.419
487.68	5.450
488.03	5.503
488.37	5.563
488.71	5.593
489.06	5.599
489.40	5.603
489.74	5.599
490.09	5.583
490.43	5.564
490.77	5.544
491.11	5.537
491.46	5.527
491.80	5.499
492.14	5.465
492.49	5.446
492.83	5.407
493.17	5.380
493.51	5.359
493.86	5.326
494.20	5.316
494.54	5.314
494.88	5.307
495.23	5.311
495.57	5.331
495.91	5.361
496.25	5.368
496.60	5.401
496.94	5.397
497.28	5.418
497.62	5.442
497.97	5.461
498.31	5.491
498.65	5.494
498.99	5.499
499.33	5.535
499.68	5.540
500.02	5.564
500.36	5.559
500.70	5.604
501.04	5.602
501.39	5.613
501.73	5.618
502.07	5.643
502.41	5.665
502.75	5.706
503.09	5.717
503.44	5.742
503.78	5.753
504.12	5.797
504.46	5.824
504.80	5.878
505.14	5.936
505.49	5.986
505.83	6.006
506.17	6.050
506.51	6.081
506.85	6.111
507.19	6.152
507.53	6.179
507.87	6.202
508.22	6.211
508.56	6.226
508.90	6.228
509.24	6.246
509.58	6.260
509.92	6.289
510.26	6.310
510.60	6.327
510.94	6.346
511.28	6.378
511.63	6.402
511.97	6.445
512.31	6.470
512.65	6.495
512.99	6.517
513.33	6.583
513.67	6.617
514.01	6.685
514.35	6.743
514.69	6.788
515.03	6.839
515.37	6.905
515.71	6.954
516.05	6.998
516.39	7.042
516.73	7.090
517.07	7.098
517.41	7.111
517.75	7.106
518.09	7.118
518.43	7.119
518.77	7.109
519.11	7.090
519.45	7.083
519.79	7.078
520.13	7.077
520.47	7.086
520.81	7.111
521.15	7.155
521.49	7.197
521.83	7.233
522.17	7.274
522.51	7.339
522.85	7.414
523.19	7.484
523.53	7.588
523.87	7.708
524.21	7.817
524.55	7.926
524.89	8.018
525.23	8.110
525.57	8.185
525.91	8.271
526.25	8.345
526.58	8.415
526.92	8.479
527.26	8.520
527.60	8.530
527.94	8.543
528.28	8.548
528.62	8.535
528.96	8.515
529.30	8.504
529.64	8.480
529.97	8.457
530.31	8.415
530.65	8.376
530.99	8.348
531.33	8.332
531.67	8.321
532.01	8.302
532.35	8.308
532.68	8.310
533.02	8.306
533.36	8.312
533.70	8.303
534.04	8.301
534.38	8.302
534.71	8.299
535.05	8.298
535.39	8.294
535.73	8.295
536.07	8.300
536.41	8.313
536.74	8.332
537.08	8.353
537.42	8.397
537.76	8.437
538.10	8.489
538.43	8.539
538.77	8.595
539.11	8.648
539.45	8.698
539.79	8.750
540.12	8.797
540.46	8.824
540.80	8.840
541.14	8.845
541.47	8.841
541.81	8.824
542.15	8.814
542.49	8.807
542.82	8.776
543.16	8.747
543.50	8.707
543.84	8.668
544.17	8.638
544.51	8.626
544.85	8.603
545.18	8.612
545.52	8.618
545.86	8.609
546.20	8.593
546.53	8.582
546.87	8.563
547.21	8.547
547.54	8.525
547.88	8.522
548.22	8.507
548.55	8.498
548.89	8.497
549.23	8.492
549.56	8.487
549.90	8.516
550.24	8.540
550.57	8.564
550.91	8.577
551.25	8.597
551.58	8.604
551.92	8.615
552.26	8.635
552.59	8.627
552.93	8.635
553.27	8.648
553.60	8.659
553.94	8.643
554.27	8.656
554.61	8.680
554.95	8.688
555.28	8.713
555.62	8.718
555.95	8.749
556.29	8.774
556.63	8.799
556.96	8.816
557.30	8.801
557.63	8.809
557.97	8.812
558.31	8.786
558.64	8.789
558.98	8.807
559.31	8.836
559.65	8.828
559.98	8.850
560.32	8.845
560.65	8.851
560.99	8.867
561.33	8.915
561.66	8.916
562.00	8.964
562.33	9.015
562.67	9.015
563.00	9.025
563.34	9.059
563.67	9.070
564.01	9.086
564.34	9.105
564.68	9.122
565.01	9.128
565.35	9.173
565.68	9.181
566.02	9.161
566.35	9.176
566.69	9.174
567.02	9.198
567.36	9.194
567.69	9.232
568.03	9.264
568.36	9.273
568.69	9.272
569.03	9.255
569.36	9.265
569.70	9.283
570.03	9.312
570.37	9.335
570.70	9.321
571.04	9.350
571.37	9.331
571.70	9.323
572.04	9.331
572.37	9.368
572.71	9.391
573.04	9.414
573.37	9.435
573.71	9.434
574.04	9.444
574.38	9.465
574.71	9.475
575.04	9.502
575.38	9.511
575.71	9.509
576.05	9.482
576.38	9.500
576.71	9.475
577.05	9.454
577.38	9.450
577.71	9.434
578.05	9.409
578.38	9.399
578.71	9.383
579.05	9.388
579.38	9.386
579.71	9.396
580.05	9.379
580.38	9.386
580.71	9.392
581.05	9.382
581.38	9.379
581.71	9.375
582.05	9.380
582.38	9.426
582.71	9.417
583.04	9.444
583.38	9.428
583.71	9.431
584.04	9.444
584.38	9.446
584.71	9.469
585.04	9.512
585.37	9.541
585.71	9.557
586.04	9.546
586.37	9.598
586.70	9.605
587.04	9.627
587.37	9.633
587.70	9.655
588.03	9.685
588.37	9.720
588.70	9.727
589.03	9.737
589.36	9.760
589.69	9.742
590.03	9.731
590.36	9.719
590.69	9.702
591.02	9.710
591.35	9.711
591.69	9.715
592.02	9.714
592.35	9.712
592.68	9.714
593.01	9.679
593.35	9.691
593.68	9.687
594.01	9.711
594.34	9.729
594.67	9.740
595.00	9.730
595.34	9.692
595.67	9.666
596.00	9.661
596.33	9.633
596.66	9.633
596.99	9.643
597.32	9.605
597.65	9.583
597.99	9.553
598.32	9.513
598.65	9.478
598.98	9.483
599.31	9.487
599.64	9.478
599.97	9.499
600.30	9.518
600.63	9.510
600.96	9.543
601.30	9.545
601.63	9.597
601.96	9.627
602.29	9.660
602.62	9.696
602.95	9.690
603.28	9.712
603.61	9.705
603.94	9.687
604.27	9.697
604.60	9.679
604.93	9.685
605.26	9.654
605.59	9.663
605.92	9.669
606.25	9.657
606.58	9.678
606.91	9.639
607.24	9.645
607.57	9.650
607.90	9.623
608.23	9.616
608.56	9.602
608.89	9.591
609.22	9.570
609.55	9.547
609.88	9.507
610.21	9.481
610.54	9.499
610.87	9.479
611.20	9.454
611.53	9.453
611.86	9.445
612.19	9.441
612.52	9.424
612.85	9.429
613.18	9.454
613.51	9.463
613.84	9.446
614.17	9.460
614.49	9.474
614.82	9.480
615.15	9.495
615.48	9.506
615.81	9.494
616.14	9.527
616.47	9.459
616.80	9.420
617.13	9.406
617.46	9.396
617.78	9.364
618.11	9.346
618.44	9.363
618.77	9.344
619.10	9.337
619.43	9.347
619.76	9.304
620.09	9.369
620.41	9.378
620.74	9.416
621.07	9.453
621.40	9.491
621.73	9.522
622.06	9.560
622.38	9.577
622.71	9.614
623.04	9.640
623.37	9.722
623.70	9.728
624.02	9.765
624.35	9.783
624.68	9.791
625.01	9.801
625.34	9.829
625.66	9.807
625.99	9.842
626.32	9.865
626.65	9.882
626.98	9.845
627.30	9.856
627.63	9.860
627.96	9.846
628.29	9.836
628.61	9.818
628.94	9.806
629.27	9.804
629.60	9.756
629.92	9.751
630.25	9.719
630.58	9.706
630.91	9.709
631.23	9.703
631.56	9.723
631.89	9.728
632.21	9.741
632.54	9.719
632.87	9.719
633.19	9.738
633.52	9.730
633.85	9.750
634.18	9.744
634.50	9.710
634.83	9.705
635.16	9.660
635.48	9.617
635.81	9.565
636.14	9.528
636.46	9.508
636.79	9.495
637.11	9.446
637.44	9.381
637.77	9.344
638.09	9.350
638.42	9.279
638.75	9.254
639.07	9.282
639.40	9.286
639.73	9.284
640.05	9.242
640.38	9.230
640.70	9.214
641.03	9.222
641.36	9.215
641.68	9.185
642.01	9.198
642.33	9.206
642.66	9.156
642.98	9.138
643.31	9.128
643.64	9.142
643.96	9.107
644.29	9.113
644.61	9.124
644.94	9.180
645.26	9.196
645.59	9.238
645.91	9.254
646.24	9.307
646.56	9.305
646.89	9.349
647.22	9.344
647.54	9.392
647.87	9.412
648.19	9.374
648.52	9.321
648.84	9.317
649.17	9.261
649.49	9.245
649.82	9.214
650.14	9.247
650.47	9.237
650.79	9.257
651.11	9.211
651.44	9.220
651.76	9.257
652.09	9.317
652.41	9.360
652.74	9.409
653.06	9.433
653.39	9.458
653.71	9.472
654.04	9.480
654.36	9.506
654.68	9.561
655.01	9.558
655.33	9.592
655.66	9.581
655.98	9.586
656.30	9.557
656.63	9.578
656.95	9.585
657.28	9.560
657.60	9.565
657.92	9.528
658.25	9.487
658.57	9.493
