OOIBase32 Version 2.0.0.6 Data File
++++++++++++++++++++++++++++++++++++
Date: 01-23-2012, 23:26:38
User: Valued Ocean Optics Customer
Spectrometer Serial Number: USB2E2917
Spectrometer Channel: Master
Integration Time (msec): 5
Spectra Averaged: 10
Boxcar Smoothing: 5
Correct for Electrical Dark: Enabled
Time Normalized: Disabled
Dual-beam Reference: Disabled
Reference Channel: Master
Temperature: Not acquired
Spectrometer Type: S2000
ADC Type: USB2000
Number of Pixels in File: 2048
Graph Title: 
>>>>>Begin Spectral Data<<<<<
180.30	0.000
180.67	0.000
181.03	26.489
181.40	45.552
181.77	1884.557
182.14	4.297
182.51	-572.563
182.88	128.762
183.25	44.775
183.62	61.402
183.99	471.802
184.36	-31.267
184.73	208.173
185.10	24.393
185.46	-362.072
185.83	-135.290
186.20	1012.958
186.57	93.166
186.94	93.946
187.31	26.339
187.68	107.036
188.05	115.094
188.42	157.834
188.78	270.712
189.15	1071.557
189.52	-330.348
189.89	-71.470
190.26	-2.306
190.63	11.549
191.00	19.924
191.37	28.888
191.73	42.566
192.10	40.761
192.47	37.028
192.84	35.488
193.21	48.081
193.58	49.448
193.94	41.503
194.31	33.379
194.68	25.185
195.05	11.069
195.42	15.638
195.79	15.300
196.15	25.026
196.52	22.424
196.89	32.310
197.26	31.669
197.63	25.855
198.00	17.264
198.36	14.021
198.73	9.656
199.10	-0.687
199.47	-5.066
199.84	-19.410
200.20	-32.342
200.57	-28.053
200.94	-43.965
201.31	-41.748
201.68	-36.746
202.04	-16.916
202.41	-13.259
202.78	-24.072
203.15	-14.258
203.51	-22.346
203.88	-30.988
204.25	-31.456
204.62	-24.156
204.98	-27.442
205.35	-48.962
205.72	-52.649
206.09	-80.254
206.46	-154.485
206.82	-108.821
207.19	-105.650
207.56	-150.914
207.92	-118.531
208.29	-127.247
208.66	-96.729
209.03	-75.785
209.39	-36.048
209.76	-38.176
210.13	-63.682
210.50	-36.626
210.86	-34.728
211.23	-46.593
211.60	-28.053
211.96	-19.623
212.33	1.112
212.70	-1.621
213.07	0.372
213.43	-45.455
213.80	-44.552
214.17	-23.174
214.53	-21.141
214.90	-19.305
215.27	-15.076
215.63	-18.272
216.00	-18.805
216.37	-24.702
216.74	-38.084
217.10	-25.523
217.47	-17.708
217.84	-10.951
218.20	-7.191
218.57	0.430
218.94	1.757
219.30	1.630
219.67	-3.627
220.04	-3.051
220.40	-7.692
220.77	-10.769
221.13	-16.296
221.50	-10.679
221.87	-9.936
222.23	-13.323
222.60	-22.984
222.97	-18.939
223.33	-13.223
223.70	-8.072
224.07	-11.761
224.43	-10.419
224.80	-4.322
225.16	-6.908
225.53	-7.473
225.90	-10.111
226.26	-8.222
226.63	-5.632
226.99	-4.546
227.36	-4.089
227.73	-1.555
228.09	-1.398
228.46	0.353
228.82	0.562
229.19	1.008
229.56	1.426
229.92	4.529
230.29	6.163
230.65	5.644
231.02	3.797
231.38	0.627
231.75	-3.153
232.12	-4.210
232.48	-5.891
232.85	-6.654
233.21	-6.011
233.58	-8.110
233.94	-8.927
234.31	-9.854
234.68	-7.704
235.04	-6.396
235.41	-4.321
235.77	-2.531
236.14	-0.804
236.50	0.106
236.87	0.418
237.23	0.987
237.60	1.071
237.96	0.457
238.33	-0.441
238.69	-1.391
239.06	-1.691
239.42	-1.524
239.79	-1.885
240.15	-1.424
240.52	-0.776
240.88	-0.450
241.25	-0.700
241.61	0.232
241.98	0.420
242.34	0.602
242.71	1.035
243.07	1.301
243.44	1.470
243.80	1.764
244.17	1.866
244.53	1.501
244.90	1.543
245.26	1.716
245.63	1.456
245.99	1.266
246.36	1.272
246.72	1.406
247.09	1.201
247.45	1.118
247.81	1.447
248.18	1.349
248.54	1.591
248.91	1.537
249.27	1.605
249.64	2.092
250.00	2.498
250.36	2.347
250.73	1.935
251.09	2.484
251.46	2.606
251.82	2.160
252.19	2.093
252.55	1.793
252.91	1.608
253.28	1.244
253.64	0.738
254.01	0.706
254.37	1.473
254.73	2.077
255.10	2.232
255.46	2.558
255.83	2.376
256.19	2.163
256.55	2.084
256.92	2.108
257.28	2.157
257.65	2.267
258.01	2.241
258.37	1.971
258.74	1.657
259.10	1.479
259.46	1.312
259.83	1.184
260.19	1.199
260.55	1.192
260.92	1.187
261.28	1.234
261.64	1.336
262.01	1.173
262.37	1.300
262.73	1.603
263.10	1.613
263.46	1.494
263.82	1.552
264.19	1.535
264.55	1.336
264.91	1.130
265.28	0.859
265.64	0.627
266.00	0.625
266.37	0.760
266.73	0.645
267.09	0.640
267.46	0.706
267.82	0.717
268.18	0.974
268.54	1.207
268.91	1.218
269.27	1.446
269.63	1.360
270.00	1.555
270.36	1.423
270.72	1.493
271.08	1.335
271.45	1.142
271.81	1.099
272.17	0.893
272.53	0.641
272.90	0.803
273.26	0.964
273.62	1.074
273.98	0.844
274.35	0.963
274.71	1.108
275.07	1.456
275.43	1.641
275.80	1.803
276.16	1.783
276.52	1.981
276.88	1.893
277.25	1.556
277.61	1.395
277.97	1.290
278.33	1.217
278.69	0.884
279.06	0.757
279.42	0.806
279.78	0.944
280.14	1.144
280.50	1.336
280.87	1.330
281.23	1.438
281.59	1.545
281.95	1.706
282.31	1.869
282.68	1.888
283.04	1.760
283.40	1.725
283.76	1.660
284.12	1.660
284.48	1.609
284.85	1.731
285.21	1.740
285.57	1.707
285.93	1.820
286.29	1.554
286.65	1.755
287.02	2.179
287.38	2.213
287.74	2.114
288.10	2.076
288.46	1.968
288.82	1.897
289.18	1.879
289.54	1.967
289.91	1.878
290.27	2.058
290.63	2.030
290.99	1.835
291.35	1.850
291.71	2.009
292.07	1.977
292.43	2.043
292.79	1.938
293.16	1.919
293.52	1.894
293.88	1.954
294.24	1.969
294.60	2.031
294.96	2.001
295.32	2.043
295.68	2.029
296.04	2.033
296.40	2.040
296.76	2.212
297.12	2.118
297.49	2.034
297.85	1.998
298.21	1.838
298.57	1.482
298.93	1.511
299.29	1.361
299.65	1.335
300.01	1.331
300.37	1.379
300.73	1.338
301.09	1.393
301.45	1.538
301.81	1.651
302.17	1.840
302.53	1.939
302.89	1.925
303.25	2.057
303.61	1.922
303.97	1.791
304.33	1.758
304.69	1.774
305.05	1.835
305.41	1.756
305.77	1.827
306.13	1.834
306.49	1.914
306.85	1.790
307.21	1.819
307.57	1.948
307.93	2.057
308.29	2.098
308.65	2.046
309.01	2.063
309.37	2.020
309.73	1.866
310.09	1.972
310.45	2.041
310.81	2.115
311.17	2.120
311.53	2.113
311.89	2.191
312.25	2.219
312.61	2.269
312.96	2.326
313.32	2.489
313.68	2.475
314.04	2.262
314.40	2.273
314.76	2.229
315.12	2.087
315.48	2.059
315.84	2.063
316.20	2.034
316.56	1.944
316.92	1.764
317.27	1.738
317.63	1.832
317.99	1.985
318.35	1.982
318.71	2.065
319.07	2.205
319.43	2.351
319.79	2.268
320.15	2.212
320.50	2.258
320.86	2.388
321.22	2.345
321.58	2.277
321.94	2.231
322.30	2.186
322.66	2.112
323.01	2.030
323.37	1.974
323.73	2.013
324.09	2.001
324.45	2.066
324.81	2.025
325.17	2.087
325.52	2.138
325.88	2.047
326.24	2.124
326.60	2.171
326.96	2.234
327.31	2.135
327.67	2.016
328.03	2.068
328.39	1.924
328.75	2.009
329.11	1.949
329.46	1.962
329.82	2.113
330.18	2.042
330.54	1.987
330.90	1.932
331.25	1.976
331.61	2.164
331.97	2.127
332.33	2.261
332.68	2.321
333.04	2.382
333.40	2.313
333.76	2.181
334.11	2.235
334.47	2.253
334.83	2.228
335.19	2.235
335.54	2.111
335.90	2.162
336.26	2.161
336.62	2.028
336.97	1.945
337.33	1.979
337.69	2.047
338.05	1.979
338.40	1.962
338.76	2.056
339.12	2.096
339.48	2.096
339.83	2.074
340.19	2.046
340.55	2.161
340.90	2.152
341.26	2.129
341.62	2.058
341.97	2.117
342.33	2.222
342.69	2.239
343.04	2.230
343.40	2.148
343.76	2.090
344.12	2.138
344.47	2.135
344.83	2.185
345.19	2.230
345.54	2.314
345.90	2.290
346.26	2.324
346.61	2.314
346.97	2.282
347.32	2.355
347.68	2.362
348.04	2.302
348.39	2.211
348.75	2.250
349.11	2.315
349.46	2.302
349.82	2.333
350.18	2.283
350.53	2.284
350.89	2.353
351.24	2.364
351.60	2.425
351.96	2.544
352.31	2.609
352.67	2.624
353.02	2.550
353.38	2.571
353.74	2.546
354.09	2.512
354.45	2.514
354.80	2.460
355.16	2.488
355.52	2.500
355.87	2.411
356.23	2.443
356.58	2.428
356.94	2.460
357.29	2.511
357.65	2.533
358.00	2.592
358.36	2.611
358.72	2.602
359.07	2.642
359.43	2.658
359.78	2.745
360.14	2.688
360.49	2.702
360.85	2.736
361.20	2.684
361.56	2.686
361.91	2.665
362.27	2.638
362.62	2.698
362.98	2.721
363.33	2.727
363.69	2.729
364.04	2.817
364.40	2.830
364.75	2.786
365.11	2.830
365.46	2.829
365.82	2.874
366.17	2.915
366.53	2.966
366.88	2.978
367.24	3.059
367.59	3.063
367.95	3.073
368.30	3.108
368.66	3.161
369.01	3.175
369.37	3.239
369.72	3.261
370.08	3.301
370.43	3.281
370.78	3.281
371.14	3.235
371.49	3.247
371.85	3.274
372.20	3.314
372.56	3.344
372.91	3.370
373.26	3.399
373.62	3.365
373.97	3.412
374.33	3.433
374.68	3.474
375.03	3.516
375.39	3.487
375.74	3.473
376.10	3.466
376.45	3.531
376.80	3.538
377.16	3.529
377.51	3.621
377.87	3.626
378.22	3.650
378.57	3.632
378.93	3.661
379.28	3.724
379.63	3.767
379.99	3.806
380.34	3.764
380.70	3.781
381.05	3.822
381.40	3.827
381.76	3.873
382.11	3.898
382.46	3.958
382.82	4.020
383.17	4.064
383.52	4.093
383.88	4.090
384.23	4.132
384.58	4.167
384.94	4.155
385.29	4.161
385.64	4.160
385.99	4.200
386.35	4.229
386.70	4.218
387.05	4.189
387.41	4.190
387.76	4.220
388.11	4.236
388.47	4.224
388.82	4.296
389.17	4.312
389.52	4.320
389.88	4.312
390.23	4.321
390.58	4.351
390.93	4.394
391.29	4.439
391.64	4.450
391.99	4.494
392.34	4.568
392.70	4.549
393.05	4.583
393.40	4.603
393.75	4.642
394.11	4.643
394.46	4.605
394.81	4.602
395.16	4.572
395.52	4.572
395.87	4.564
396.22	4.565
396.57	4.539
396.92	4.512
397.28	4.500
397.63	4.501
397.98	4.508
398.33	4.514
398.68	4.536
399.04	4.561
399.39	4.588
399.74	4.591
400.09	4.591
400.44	4.638
400.80	4.674
401.15	4.685
401.50	4.692
401.85	4.710
402.20	4.710
402.55	4.732
402.90	4.698
403.26	4.704
403.61	4.689
403.96	4.699
404.31	4.675
404.66	4.707
405.01	4.700
405.36	4.691
405.72	4.690
406.07	4.748
406.42	4.740
406.77	4.785
407.12	4.776
407.47	4.816
407.82	4.819
408.17	4.840
408.53	4.811
408.88	4.827
409.23	4.833
409.58	4.820
409.93	4.806
410.28	4.814
410.63	4.812
410.98	4.827
411.33	4.824
411.68	4.833
412.03	4.863
412.38	4.861
412.73	4.892
413.09	4.933
413.44	4.935
413.79	4.963
414.14	5.007
414.49	5.018
414.84	5.047
415.19	5.080
415.54	5.119
415.89	5.149
416.24	5.204
416.59	5.232
416.94	5.232
417.29	5.298
417.64	5.314
417.99	5.326
418.34	5.366
418.69	5.375
419.04	5.377
419.39	5.381
419.74	5.384
420.09	5.398
420.44	5.409
420.79	5.421
421.14	5.416
421.49	5.428
421.84	5.416
422.19	5.426
422.54	5.446
422.89	5.453
423.24	5.458
423.59	5.455
423.94	5.436
424.29	5.436
424.64	5.454
424.99	5.451
425.34	5.454
425.68	5.481
426.03	5.461
426.38	5.458
426.73	5.470
427.08	5.467
427.43	5.492
427.78	5.493
428.13	5.495
428.48	5.514
428.83	5.516
429.18	5.512
429.53	5.504
429.87	5.517
430.22	5.513
430.57	5.541
430.92	5.535
431.27	5.543
431.62	5.558
431.97	5.576
432.32	5.560
432.67	5.563
433.01	5.550
433.36	5.551
433.71	5.550
434.06	5.560
434.41	5.537
434.76	5.569
435.11	5.578
435.45	5.586
435.80	5.579
436.15	5.600
436.50	5.618
436.85	5.638
437.20	5.655
437.54	5.671
437.89	5.669
438.24	5.685
438.59	5.694
438.94	5.694
439.29	5.700
439.63	5.719
439.98	5.722
440.33	5.729
440.68	5.753
441.03	5.776
441.37	5.808
441.72	5.839
442.07	5.846
442.42	5.861
442.76	5.874
443.11	5.888
443.46	5.904
443.81	5.931
444.16	5.953
444.50	5.968
444.85	5.986
445.20	5.981
445.55	5.987
445.89	6.019
446.24	6.024
446.59	6.029
446.94	6.038
447.28	6.037
447.63	6.036
447.98	6.052
448.32	6.044
448.67	6.025
449.02	6.031
449.37	6.025
449.71	6.017
450.06	6.031
450.41	6.053
450.75	6.057
451.10	6.070
451.45	6.059
451.79	6.044
452.14	6.063
452.49	6.091
452.84	6.091
453.18	6.110
453.53	6.114
453.88	6.127
454.22	6.133
454.57	6.142
454.92	6.166
455.26	6.205
455.61	6.243
455.95	6.288
456.30	6.305
456.65	6.359
456.99	6.388
457.34	6.423
457.69	6.445
458.03	6.464
458.38	6.500
458.73	6.519
459.07	6.524
459.42	6.516
459.76	6.493
460.11	6.489
460.46	6.461
460.80	6.446
461.15	6.439
461.49	6.415
461.84	6.419
462.19	6.398
462.53	6.396
462.88	6.414
463.22	6.424
463.57	6.424
463.91	6.439
464.26	6.461
464.61	6.485
464.95	6.477
465.30	6.492
465.64	6.505
465.99	6.526
466.33	6.546
466.68	6.545
467.02	6.565
467.37	6.574
467.71	6.561
468.06	6.575
468.41	6.584
468.75	6.593
469.10	6.586
469.44	6.577
469.79	6.568
470.13	6.539
470.48	6.532
470.82	6.529
471.17	6.553
471.51	6.569
471.86	6.568
472.20	6.562
472.55	6.573
472.89	6.608
473.23	6.614
473.58	6.626
473.92	6.648
474.27	6.661
474.61	6.662
474.96	6.674
475.30	6.695
475.65	6.696
475.99	6.705
476.34	6.727
476.68	6.729
477.02	6.756
477.37	6.776
477.71	6.808
478.06	6.859
478.40	6.949
478.75	7.037
479.09	7.157
479.43	7.312
479.78	7.480
480.12	7.640
480.47	7.822
480.81	7.988
481.15	8.155
481.50	8.335
481.84	8.529
482.19	8.728
482.53	8.898
482.87	9.001
483.22	9.008
483.56	8.937
483.90	8.818
484.25	8.651
484.59	8.478
484.94	8.321
485.28	8.166
485.62	7.994
485.97	7.798
486.31	7.639
486.65	7.538
487.00	7.503
487.34	7.537
487.68	7.589
488.03	7.676
488.37	7.768
488.71	7.834
489.06	7.861
489.40	7.879
489.74	7.895
490.09	7.908
490.43	7.898
490.77	7.888
491.11	7.867
491.46	7.852
491.80	7.834
492.14	7.810
492.49	7.805
492.83	7.794
493.17	7.777
493.51	7.752
493.86	7.730
494.20	7.735
494.54	7.757
494.88	7.795
495.23	7.839
495.57	7.888
495.91	7.943
496.25	7.975
496.60	8.007
496.94	8.033
497.28	8.071
497.62	8.102
497.97	8.132
498.31	8.175
498.65	8.200
498.99	8.229
499.33	8.248
499.68	8.268
500.02	8.303
500.36	8.339
500.70	8.365
501.04	8.408
501.39	8.444
501.73	8.494
502.07	8.524
502.41	8.564
502.75	8.642
503.09	8.707
503.44	8.781
503.78	8.824
504.12	8.895
504.46	8.974
504.80	9.025
505.14	9.122
505.49	9.185
505.83	9.263
506.17	9.346
506.51	9.392
506.85	9.463
507.19	9.520
507.53	9.565
507.87	9.608
508.22	9.667
508.56	9.745
508.90	9.780
509.24	9.836
509.58	9.872
509.92	9.911
510.26	9.965
510.60	9.997
510.94	10.034
511.28	10.114
511.63	10.182
511.97	10.236
512.31	10.302
512.65	10.365
512.99	10.442
513.33	10.549
513.67	10.656
514.01	10.761
514.35	10.863
514.69	10.982
515.03	11.072
515.37	11.175
515.71	11.270
516.05	11.354
516.39	11.436
516.73	11.508
517.07	11.561
517.41	11.605
517.75	11.650
518.09	11.710
518.43	11.752
518.77	11.787
519.11	11.807
519.45	11.848
519.79	11.895
520.13	11.942
520.47	11.997
520.81	12.072
521.15	12.161
521.49	12.247
521.83	12.322
522.17	12.384
522.51	12.497
522.85	12.620
523.19	12.780
523.53	12.965
523.87	13.157
524.21	13.341
524.55	13.512
524.89	13.665
525.23	13.809
525.57	13.953
525.91	14.092
526.25	14.208
526.58	14.317
526.92	14.387
527.26	14.420
527.60	14.425
527.94	14.434
528.28	14.425
528.62	14.416
528.96	14.400
529.30	14.372
529.64	14.341
529.97	14.317
530.31	14.294
530.65	14.280
530.99	14.281
531.33	14.319
531.67	14.339
532.01	14.375
532.35	14.384
532.68	14.403
533.02	14.422
533.36	14.442
533.70	14.440
534.04	14.423
534.38	14.429
534.71	14.442
535.05	14.447
535.39	14.462
535.73	14.467
536.07	14.515
536.41	14.557
536.74	14.617
537.08	14.671
537.42	14.767
537.76	14.873
538.10	14.950
538.43	15.023
538.77	15.095
539.11	15.172
539.45	15.240
539.79	15.303
540.12	15.345
540.46	15.353
540.80	15.377
541.14	15.364
541.47	15.337
541.81	15.329
542.15	15.323
542.49	15.314
542.82	15.285
543.16	15.262
543.50	15.210
543.84	15.195
544.17	15.180
544.51	15.185
544.85	15.194
545.18	15.221
545.52	15.232
545.86	15.227
546.20	15.228
546.53	15.229
546.87	15.243
547.21	15.268
547.54	15.275
547.88	15.305
548.22	15.296
548.55	15.311
548.89	15.321
549.23	15.331
549.56	15.363
549.90	15.400
550.24	15.436
550.57	15.457
550.91	15.476
551.25	15.510
551.58	15.559
551.92	15.597
552.26	15.611
552.59	15.632
552.93	15.657
553.27	15.681
553.60	15.684
553.94	15.708
554.27	15.732
554.61	15.765
554.95	15.782
555.28	15.797
555.62	15.823
555.95	15.855
556.29	15.885
556.63	15.915
556.96	15.945
557.30	15.968
557.63	15.965
557.97	15.974
558.31	15.970
558.64	15.980
558.98	16.003
559.31	16.024
559.65	16.019
559.98	16.024
560.32	16.037
560.65	16.029
560.99	16.029
561.33	16.057
561.66	16.081
562.00	16.131
562.33	16.165
562.67	16.186
563.00	16.223
563.34	16.263
563.67	16.292
564.01	16.304
564.34	16.325
564.68	16.363
565.01	16.374
565.35	16.377
565.68	16.371
566.02	16.360
566.35	16.337
566.69	16.315
567.02	16.327
567.36	16.315
567.69	16.306
568.03	16.326
568.36	16.320
568.69	16.324
569.03	16.351
569.36	16.370
569.70	16.370
570.03	16.403
570.37	16.414
570.70	16.419
571.04	16.433
571.37	16.431
571.70	16.416
572.04	16.415
572.37	16.417
572.71	16.387
573.04	16.371
573.37	16.370
573.71	16.378
574.04	16.375
574.38	16.353
574.71	16.350
575.04	16.368
575.38	16.349
575.71	16.337
576.05	16.326
576.38	16.345
576.71	16.321
577.05	16.302
577.38	16.257
577.71	16.256
578.05	16.272
578.38	16.264
578.71	16.247
579.05	16.252
579.38	16.243
579.71	16.238
580.05	16.211
580.38	16.213
580.71	16.220
581.05	16.219
581.38	16.205
581.71	16.179
582.05	16.178
582.38	16.197
582.71	16.200
583.04	16.204
583.38	16.194
583.71	16.203
584.04	16.227
584.38	16.258
584.71	16.301
585.04	16.299
585.37	16.300
585.71	16.296
586.04	16.285
586.37	16.313
586.70	16.335
587.04	16.355
587.37	16.393
587.70	16.414
588.03	16.428
588.37	16.412
588.70	16.445
589.03	16.462
589.36	16.491
589.69	16.512
590.03	16.507
590.36	16.502
590.69	16.497
591.02	16.461
591.35	16.437
591.69	16.415
592.02	16.437
592.35	16.432
592.68	16.451
593.01	16.442
593.35	16.428
593.68	16.409
594.01	16.430
594.34	16.440
594.67	16.448
595.00	16.470
595.34	16.483
595.67	16.462
596.00	16.439
596.33	16.407
596.66	16.423
596.99	16.425
597.32	16.444
597.65	16.414
597.99	16.383
598.32	16.377
598.65	16.359
598.98	16.375
599.31	16.424
599.64	16.446
599.97	16.488
600.30	16.486
600.63	16.495
600.96	16.523
601.30	16.549
601.63	16.625
601.96	16.653
602.29	16.680
602.62	16.681
602.95	16.681
603.28	16.693
603.61	16.675
603.94	16.671
604.27	16.696
604.60	16.706
604.93	16.726
605.26	16.696
605.59	16.700
605.92	16.703
606.25	16.697
606.58	16.711
606.91	16.698
607.24	16.768
607.57	16.773
607.90	16.792
608.23	16.761
608.56	16.746
608.89	16.745
609.22	16.751
609.55	16.727
609.88	16.723
610.21	16.712
610.54	16.746
610.87	16.670
611.20	16.669
611.53	16.671
611.86	16.702
612.19	16.728
612.52	16.728
612.85	16.740
613.18	16.791
613.51	16.787
613.84	16.761
614.17	16.772
614.49	16.842
614.82	16.820
615.15	16.803
615.48	16.811
615.81	16.795
616.14	16.817
616.47	16.797
616.80	16.770
617.13	16.790
617.46	16.789
617.78	16.786
618.11	16.755
618.44	16.827
618.77	16.790
619.10	16.758
619.43	16.781
619.76	16.768
620.09	16.819
620.41	16.865
620.74	16.907
621.07	16.992
621.40	16.999
621.73	17.019
622.06	17.046
622.38	17.133
622.71	17.184
623.04	17.249
623.37	17.289
623.70	17.308
624.02	17.338
624.35	17.400
624.68	17.403
625.01	17.474
625.34	17.541
625.66	17.548
625.99	17.580
626.32	17.624
626.65	17.635
626.98	17.686
627.30	17.702
627.63	17.708
627.96	17.664
628.29	17.662
628.61	17.644
628.94	17.618
629.27	17.628
629.60	17.612
629.92	17.608
630.25	17.599
630.58	17.612
630.91	17.614
631.23	17.582
631.56	17.613
631.89	17.612
632.21	17.615
632.54	17.596
632.87	17.585
633.19	17.570
633.52	17.534
633.85	17.486
634.18	17.443
634.50	17.424
634.83	17.443
635.16	17.381
635.48	17.337
635.81	17.296
636.14	17.271
636.46	17.240
636.79	17.197
637.11	17.141
637.44	17.107
637.77	17.041
638.09	16.995
638.42	16.901
638.75	16.871
639.07	16.796
639.40	16.704
639.73	16.634
640.05	16.582
640.38	16.537
640.70	16.487
641.03	16.442
641.36	16.369
641.68	16.287
642.01	16.295
642.33	16.288
642.66	16.315
642.98	16.270
643.31	16.250
643.64	16.183
643.96	16.123
644.29	16.139
644.61	16.116
644.94	16.111
645.26	16.124
645.59	16.081
645.91	16.031
646.24	16.036
646.56	16.053
646.89	16.022
647.22	16.061
647.54	16.060
647.87	16.046
648.19	16.040
648.52	16.012
