OOIBase32 Version 2.0.0.6 Data File
++++++++++++++++++++++++++++++++++++
Date: 01-23-2012, 23:27:49
User: Valued Ocean Optics Customer
Spectrometer Serial Number: USB2E2917
Spectrometer Channel: Master
Integration Time (msec): 5
Spectra Averaged: 10
Boxcar Smoothing: 5
Correct for Electrical Dark: Enabled
Time Normalized: Disabled
Dual-beam Reference: Disabled
Reference Channel: Master
Temperature: Not acquired
Spectrometer Type: S2000
ADC Type: USB2000
Number of Pixels in File: 2048
Graph Title: 
>>>>>Begin Spectral Data<<<<<
180.30	0.000
180.67	0.000
181.03	71.552
181.40	327.363
181.77	-11944.725
182.14	46.117
182.51	-372.567
182.88	151.832
183.25	74.967
183.62	62.862
183.99	-124.077
184.36	183.135
184.73	-155.886
185.10	-36.063
185.46	-319.941
185.83	-34.299
186.20	213.263
186.57	109.859
186.94	115.656
187.31	46.504
187.68	-8.288
188.05	-13.203
188.42	-17.428
188.78	14.101
189.15	136.985
189.52	5.586
189.89	29.135
190.26	-6.910
190.63	-4.172
191.00	-3.714
191.37	-8.794
191.73	3.356
192.10	4.791
192.47	-0.889
192.84	0.683
193.21	0.718
193.58	-1.031
193.94	-18.367
194.31	-2.426
194.68	-8.574
195.05	-6.011
195.42	3.264
195.79	-20.108
196.15	-27.403
196.52	-49.122
196.89	-57.873
197.26	-83.927
197.63	-70.370
198.00	-65.342
198.36	-83.248
198.73	-92.867
199.10	-108.468
199.47	-91.624
199.84	-71.474
200.20	-67.422
200.57	-49.512
200.94	-53.239
201.31	-45.474
201.68	-52.784
202.04	-42.123
202.41	-31.045
202.78	-45.156
203.15	-34.430
203.51	-45.289
203.88	-38.745
204.25	-25.815
204.62	-20.581
204.98	-19.803
205.35	-16.380
205.72	4.922
206.09	2.518
206.46	-47.442
206.82	-40.933
207.19	-49.379
207.56	-81.204
207.92	-72.428
208.29	-75.396
208.66	-42.302
209.03	-34.081
209.39	-13.980
209.76	-17.023
210.13	-42.945
210.50	-12.596
210.86	0.262
211.23	18.530
211.60	22.439
211.96	19.024
212.33	12.746
212.70	3.548
213.07	-6.874
213.43	-55.409
213.80	-81.337
214.17	-48.372
214.53	-42.022
214.90	-31.101
215.27	-28.874
215.63	-33.566
216.00	-34.013
216.37	-36.634
216.74	-48.201
217.10	-37.630
217.47	-31.339
217.84	-17.862
218.20	-12.464
218.57	-5.254
218.94	-10.628
219.30	-17.228
219.67	-20.602
220.04	-16.753
220.40	-20.831
220.77	-15.883
221.13	-14.160
221.50	-5.419
221.87	-6.751
222.23	-10.779
222.60	-14.318
222.97	-11.481
223.33	-4.169
223.70	0.578
224.07	-0.175
224.43	1.551
224.80	4.814
225.16	3.584
225.53	3.164
225.90	1.574
226.26	2.212
226.63	3.206
226.99	3.178
227.36	2.873
227.73	3.538
228.09	3.816
228.46	5.126
228.82	4.972
229.19	5.214
229.56	5.129
229.92	8.076
230.29	8.836
230.65	8.478
231.02	7.613
231.38	6.376
231.75	4.816
232.12	3.368
232.48	0.133
232.85	-1.622
233.21	-1.296
233.58	-3.295
233.94	-4.290
234.31	-4.526
234.68	-4.886
235.04	-3.950
235.41	-2.587
235.77	-0.320
236.14	1.153
236.50	3.539
236.87	3.896
237.23	4.816
237.60	5.893
237.96	6.581
238.33	6.658
238.69	6.334
239.06	6.450
239.42	6.634
239.79	5.669
240.15	4.907
240.52	4.514
240.88	4.882
241.25	4.743
241.61	4.694
241.98	4.201
242.34	3.806
242.71	4.603
243.07	4.506
243.44	4.413
243.80	4.658
244.17	4.897
244.53	4.934
244.90	4.788
245.26	4.514
245.63	4.387
245.99	4.276
246.36	4.093
246.72	3.970
247.09	4.040
247.45	4.204
247.81	4.375
248.18	4.332
248.54	4.510
248.91	4.032
249.27	4.427
249.64	4.907
250.00	5.423
250.36	5.872
250.73	5.534
251.09	5.440
251.46	5.241
251.82	4.941
252.19	5.138
252.55	4.769
252.91	5.477
253.28	4.860
253.64	4.272
254.01	4.026
254.37	3.711
254.73	4.186
255.10	4.575
255.46	5.028
255.83	5.083
256.19	5.000
256.55	5.030
256.92	5.107
257.28	5.259
257.65	5.439
258.01	5.413
258.37	5.549
258.74	5.349
259.10	5.035
259.46	4.640
259.83	4.596
260.19	4.546
260.55	4.501
260.92	4.325
261.28	4.154
261.64	4.175
262.01	4.103
262.37	4.193
262.73	4.336
263.10	4.552
263.46	4.725
263.82	4.544
264.19	4.605
264.55	4.497
264.91	4.207
265.28	4.118
265.64	4.055
266.00	4.126
266.37	3.915
266.73	3.704
267.09	3.796
267.46	3.750
267.82	3.909
268.18	4.122
268.54	4.408
268.91	4.785
269.27	4.961
269.63	5.150
270.00	5.261
270.36	5.529
270.72	5.642
271.08	5.735
271.45	5.678
271.81	5.518
272.17	5.447
272.53	5.450
272.90	5.437
273.26	5.584
273.62	5.371
273.98	4.951
274.35	4.958
274.71	5.159
275.07	5.203
275.43	5.352
275.80	5.462
276.16	5.519
276.52	5.444
276.88	5.706
277.25	5.633
277.61	5.558
277.97	5.797
278.33	5.541
278.69	5.130
279.06	5.029
279.42	5.133
279.78	5.173
280.14	5.235
280.50	5.312
280.87	5.003
281.23	5.054
281.59	5.282
281.95	5.445
282.31	5.680
282.68	5.856
283.04	5.855
283.40	5.891
283.76	5.869
284.12	6.014
284.48	6.027
284.85	6.078
285.21	6.060
285.57	5.888
285.93	5.833
286.29	5.602
286.65	5.824
287.02	6.087
287.38	5.997
287.74	6.130
288.10	5.891
288.46	5.784
288.82	5.761
289.18	5.682
289.54	5.765
289.91	5.817
290.27	6.026
290.63	5.932
290.99	5.891
291.35	6.148
291.71	6.160
292.07	6.325
292.43	6.341
292.79	6.558
293.16	6.534
293.52	6.662
293.88	6.761
294.24	6.873
294.60	6.754
294.96	6.741
295.32	6.719
295.68	6.785
296.04	6.796
296.40	7.068
296.76	7.084
297.12	7.254
297.49	7.133
297.85	6.995
298.21	6.855
298.57	6.875
298.93	6.804
299.29	6.537
299.65	6.467
300.01	6.252
300.37	6.193
300.73	6.249
301.09	6.410
301.45	6.662
301.81	6.822
302.17	6.858
302.53	7.021
302.89	7.097
303.25	7.344
303.61	7.363
303.97	7.424
304.33	7.430
304.69	7.391
305.05	7.289
305.41	7.139
305.77	7.035
306.13	7.059
306.49	6.952
306.85	6.946
307.21	7.019
307.57	6.997
307.93	7.054
308.29	7.110
308.65	7.056
309.01	7.066
309.37	7.155
309.73	7.217
310.09	7.379
310.45	7.531
310.81	7.514
311.17	7.388
311.53	7.470
311.89	7.511
312.25	7.527
312.61	7.565
312.96	7.635
313.32	7.700
313.68	7.722
314.04	7.445
314.40	7.456
314.76	7.401
315.12	7.421
315.48	7.486
315.84	7.515
316.20	7.424
316.56	7.423
316.92	7.376
317.27	7.324
317.63	7.268
317.99	7.427
318.35	7.377
318.71	7.507
319.07	7.728
319.43	7.823
319.79	7.951
320.15	7.972
320.50	8.129
320.86	8.158
321.22	8.148
321.58	8.184
321.94	8.186
322.30	8.186
322.66	8.212
323.01	8.072
323.37	7.949
323.73	7.861
324.09	7.933
324.45	7.991
324.81	7.993
325.17	8.096
325.52	8.222
325.88	8.310
326.24	8.494
326.60	8.557
326.96	8.710
327.31	8.855
327.67	9.025
328.03	9.077
328.39	9.050
328.75	9.146
329.11	9.255
329.46	9.348
329.82	9.453
330.18	9.444
330.54	9.411
330.90	9.417
331.25	9.495
331.61	9.553
331.97	9.592
332.33	9.671
332.68	9.729
333.04	9.692
333.40	9.705
333.76	9.690
334.11	9.684
334.47	9.795
334.83	9.837
335.19	9.810
335.54	9.847
335.90	9.884
336.26	9.891
336.62	9.847
336.97	9.856
337.33	9.784
337.69	9.785
338.05	9.754
338.40	9.644
338.76	9.608
339.12	9.648
339.48	9.516
339.83	9.460
340.19	9.422
340.55	9.519
340.90	9.447
341.26	9.478
341.62	9.506
341.97	9.565
342.33	9.748
342.69	9.836
343.04	9.853
343.40	9.881
343.76	9.895
344.12	9.988
344.47	10.035
344.83	10.180
345.19	10.280
345.54	10.264
345.90	10.281
346.26	10.295
346.61	10.299
346.97	10.240
347.32	10.312
347.68	10.307
348.04	10.272
348.39	10.174
348.75	10.182
349.11	10.104
349.46	10.144
349.82	10.095
350.18	10.017
350.53	10.015
350.89	10.042
351.24	9.940
351.60	9.931
351.96	9.908
352.31	9.931
352.67	9.941
353.02	9.946
353.38	9.944
353.74	10.036
354.09	9.992
354.45	10.023
354.80	10.056
355.16	10.179
355.52	10.210
355.87	10.146
356.23	10.169
356.58	10.114
356.94	10.160
357.29	10.141
357.65	10.049
358.00	10.111
358.36	10.056
358.72	9.983
359.07	9.918
359.43	9.922
359.78	10.042
360.14	10.043
360.49	10.020
360.85	10.016
361.20	10.054
361.56	10.123
361.91	10.109
362.27	10.113
362.62	10.161
362.98	10.267
363.33	10.270
363.69	10.221
364.04	10.242
364.40	10.208
364.75	10.138
365.11	10.165
365.46	10.099
365.82	10.103
366.17	10.046
366.53	10.066
366.88	10.008
367.24	10.083
367.59	10.121
367.95	10.153
368.30	10.232
368.66	10.270
369.01	10.196
369.37	10.234
369.72	10.282
370.08	10.331
370.43	10.381
370.78	10.365
371.14	10.258
371.49	10.264
371.85	10.216
372.20	10.175
372.56	10.153
372.91	10.193
373.26	10.187
373.62	10.100
373.97	10.136
374.33	10.096
374.68	10.114
375.03	10.169
375.39	10.103
375.74	10.099
376.10	10.121
376.45	10.171
376.80	10.198
377.16	10.169
377.51	10.221
377.87	10.214
378.22	10.135
378.57	10.120
378.93	10.156
379.28	10.183
379.63	10.202
379.99	10.221
380.34	10.198
380.70	10.155
381.05	10.202
381.40	10.206
381.76	10.213
382.11	10.294
382.46	10.367
382.82	10.362
383.17	10.390
383.52	10.389
383.88	10.396
384.23	10.400
384.58	10.417
384.94	10.398
385.29	10.385
385.64	10.334
385.99	10.318
386.35	10.248
386.70	10.218
387.05	10.199
387.41	10.184
387.76	10.152
388.11	10.152
388.47	10.118
388.82	10.153
389.17	10.186
389.52	10.209
389.88	10.255
390.23	10.235
390.58	10.261
390.93	10.257
391.29	10.290
391.64	10.309
391.99	10.363
392.34	10.406
392.70	10.374
393.05	10.311
393.40	10.321
393.75	10.276
394.11	10.292
394.46	10.265
394.81	10.278
395.16	10.216
395.52	10.227
395.87	10.168
396.22	10.151
396.57	10.126
396.92	10.134
397.28	10.109
397.63	10.095
397.98	10.111
398.33	10.121
398.68	10.108
399.04	10.100
399.39	10.058
399.74	10.049
400.09	9.992
400.44	9.992
400.80	9.965
401.15	9.937
401.50	9.920
401.85	9.907
402.20	9.849
402.55	9.838
402.90	9.847
403.26	9.835
403.61	9.848
403.96	9.881
404.31	9.850
404.66	9.863
405.01	9.867
405.36	9.859
405.72	9.843
406.07	9.853
406.42	9.823
406.77	9.827
407.12	9.802
407.47	9.784
407.82	9.773
408.17	9.784
408.53	9.784
408.88	9.770
409.23	9.754
409.58	9.721
409.93	9.717
410.28	9.735
410.63	9.706
410.98	9.732
411.33	9.705
411.68	9.707
412.03	9.729
412.38	9.701
412.73	9.735
413.09	9.731
413.44	9.735
413.79	9.743
414.14	9.748
414.49	9.754
414.84	9.743
415.19	9.738
415.54	9.729
415.89	9.710
416.24	9.724
416.59	9.725
416.94	9.719
417.29	9.745
417.64	9.729
417.99	9.717
418.34	9.729
418.69	9.746
419.04	9.742
419.39	9.741
419.74	9.738
420.09	9.746
420.44	9.742
420.79	9.740
421.14	9.729
421.49	9.741
421.84	9.755
422.19	9.754
422.54	9.723
422.89	9.741
423.24	9.750
423.59	9.751
423.94	9.750
424.29	9.751
424.64	9.781
424.99	9.798
425.34	9.802
425.68	9.797
426.03	9.784
426.38	9.835
426.73	9.835
427.08	9.823
427.43	9.825
427.78	9.830
428.13	9.824
428.48	9.799
428.83	9.784
429.18	9.789
429.53	9.796
429.87	9.781
430.22	9.745
430.57	9.774
430.92	9.769
431.27	9.771
431.62	9.752
431.97	9.744
432.32	9.754
432.67	9.746
433.01	9.739
433.36	9.717
433.71	9.744
434.06	9.745
434.41	9.697
434.76	9.709
435.11	9.705
435.45	9.694
435.80	9.697
436.15	9.688
436.50	9.699
436.85	9.715
437.20	9.706
437.54	9.681
437.89	9.689
438.24	9.707
438.59	9.697
438.94	9.721
439.29	9.735
439.63	9.743
439.98	9.767
440.33	9.771
440.68	9.782
441.03	9.818
441.37	9.830
441.72	9.843
442.07	9.850
442.42	9.872
442.76	9.883
443.11	9.906
443.46	9.922
443.81	9.935
444.16	9.950
444.50	9.953
444.85	9.954
445.20	9.976
445.55	9.981
445.89	10.005
446.24	10.015
446.59	10.008
446.94	10.009
447.28	10.020
447.63	10.015
447.98	10.022
448.32	10.024
448.67	10.038
449.02	10.022
449.37	10.040
449.71	10.020
450.06	10.039
450.41	10.051
450.75	10.042
451.10	10.046
451.45	10.037
451.79	10.032
452.14	10.037
452.49	10.027
452.84	10.047
453.18	10.053
453.53	10.063
453.88	10.037
454.22	10.045
454.57	10.068
454.92	10.087
455.26	10.101
455.61	10.124
455.95	10.164
456.30	10.173
456.65	10.199
456.99	10.217
457.34	10.238
457.69	10.257
458.03	10.266
458.38	10.278
458.73	10.274
459.07	10.277
459.42	10.258
459.76	10.242
460.11	10.230
460.46	10.209
460.80	10.211
461.15	10.191
461.49	10.184
461.84	10.199
462.19	10.192
462.53	10.177
462.88	10.190
463.22	10.221
463.57	10.197
463.91	10.206
464.26	10.221
464.61	10.220
464.95	10.232
465.30	10.233
465.64	10.235
465.99	10.239
466.33	10.273
466.68	10.272
467.02	10.252
467.37	10.276
467.71	10.279
468.06	10.287
468.41	10.276
468.75	10.268
469.10	10.278
469.44	10.252
469.79	10.231
470.13	10.185
470.48	10.174
470.82	10.173
471.17	10.157
471.51	10.164
471.86	10.139
472.20	10.140
472.55	10.141
472.89	10.151
473.23	10.159
473.58	10.182
473.92	10.204
474.27	10.204
474.61	10.200
474.96	10.203
475.30	10.186
475.65	10.192
475.99	10.198
476.34	10.207
476.68	10.181
477.02	10.187
477.37	10.198
477.71	10.232
478.06	10.281
478.40	10.355
478.75	10.446
479.09	10.584
479.43	10.739
479.78	10.919
480.12	11.114
480.47	11.335
480.81	11.551
481.15	11.763
481.50	11.978
481.84	12.225
482.19	12.484
482.53	12.702
482.87	12.836
483.22	12.836
483.56	12.733
483.90	12.545
484.25	12.299
484.59	12.029
484.94	11.791
485.28	11.573
485.62	11.329
485.97	11.059
486.31	10.829
486.65	10.667
487.00	10.617
487.34	10.636
487.68	10.717
488.03	10.833
488.37	10.968
488.71	11.060
489.06	11.087
489.40	11.095
489.74	11.093
490.09	11.093
490.43	11.088
490.77	11.090
491.11	11.079
491.46	11.068
491.80	11.068
492.14	11.039
492.49	11.019
492.83	10.992
493.17	10.978
493.51	10.981
493.86	10.967
494.20	10.963
494.54	10.950
494.88	10.998
495.23	11.033
495.57	11.063
495.91	11.110
496.25	11.155
496.60	11.208
496.94	11.246
497.28	11.286
497.62	11.328
497.97	11.369
498.31	11.433
498.65	11.470
498.99	11.517
499.33	11.577
499.68	11.645
500.02	11.694
500.36	11.757
500.70	11.814
501.04	11.854
501.39	11.920
501.73	11.998
502.07	12.074
502.41	12.133
502.75	12.232
503.09	12.308
503.44	12.394
503.78	12.450
504.12	12.537
504.46	12.634
504.80	12.753
505.14	12.877
505.49	12.967
505.83	13.057
506.17	13.173
506.51	13.260
506.85	13.351
507.19	13.455
507.53	13.562
507.87	13.677
508.22	13.772
508.56	13.890
508.90	13.982
509.24	14.103
509.58	14.222
509.92	14.344
510.26	14.446
510.60	14.586
510.94	14.711
511.28	14.853
511.63	14.988
511.97	15.143
512.31	15.279
512.65	15.449
512.99	15.624
513.33	15.835
513.67	16.018
514.01	16.227
514.35	16.405
514.69	16.598
515.03	16.780
515.37	16.946
515.71	17.126
516.05	17.291
516.39	17.411
516.73	17.557
517.07	17.669
517.41	17.775
517.75	17.888
518.09	18.008
518.43	18.120
518.77	18.229
519.11	18.342
519.45	18.435
519.79	18.558
520.13	18.702
520.47	18.846
520.81	18.977
521.15	19.161
521.49	19.308
521.83	19.465
522.17	19.597
522.51	19.785
522.85	19.978
523.19	20.194
523.53	20.439
523.87	20.704
524.21	20.980
524.55	21.258
524.89	21.501
525.23	21.735
525.57	21.952
525.91	22.168
526.25	22.346
526.58	22.519
526.92	22.659
527.26	22.723
527.60	22.758
527.94	22.780
528.28	22.790
528.62	22.769
528.96	22.771
529.30	22.741
529.64	22.700
529.97	22.663
530.31	22.597
530.65	22.562
530.99	22.591
531.33	22.640
531.67	22.655
532.01	22.667
532.35	22.705
532.68	22.702
533.02	22.707
533.36	22.705
533.70	22.698
534.04	22.715
534.38	22.737
534.71	22.741
535.05	22.738
535.39	22.745
535.73	22.769
536.07	22.787
536.41	22.827
536.74	22.886
537.08	22.927
537.42	23.022
537.76	23.085
538.10	23.153
538.43	23.226
538.77	23.313
539.11	23.398
539.45	23.459
539.79	23.517
540.12	23.564
540.46	23.584
540.80	23.607
541.14	23.590
541.47	23.563
541.81	23.528
542.15	23.494
542.49	23.438
542.82	23.379
543.16	23.333
543.50	23.283
543.84	23.249
544.17	23.221
544.51	23.213
544.85	23.186
545.18	23.215
545.52	23.228
545.86	23.223
546.20	23.236
546.53	23.242
546.87	23.240
547.21	23.221
547.54	23.175
547.88	23.188
548.22	23.174
548.55	23.167
548.89	23.163
549.23	23.155
549.56	23.178
549.90	23.190
550.24	23.196
550.57	23.194
550.91	23.189
551.25	23.239
551.58	23.247
551.92	23.257
552.26	23.270
552.59	23.283
552.93	23.296
553.27	23.284
553.60	23.293
553.94	23.291
554.27	23.295
554.61	23.328
554.95	23.311
555.28	23.307
555.62	23.290
555.95	23.284
556.29	23.261
556.63	23.218
556.96	23.183
557.30	23.149
557.63	23.142
557.97	23.099
558.31	23.057
558.64	23.019
558.98	22.979
559.31	22.963
559.65	22.941
559.98	22.898
560.32	22.854
560.65	22.843
560.99	22.787
561.33	22.713
561.66	22.689
562.00	22.672
562.33	22.641
562.67	22.599
563.00	22.563
563.34	22.538
563.67	22.505
564.01	22.479
564.34	22.412
564.68	22.372
565.01	22.354
565.35	22.316
565.68	22.258
566.02	22.185
566.35	22.140
566.69	22.048
567.02	21.996
567.36	21.916
567.69	21.858
568.03	21.824
568.36	21.758
568.69	21.680
569.03	21.597
569.36	21.546
569.70	21.523
570.03	21.469
570.37	21.425
570.70	21.360
571.04	21.322
571.37	21.263
571.70	21.207
572.04	21.158
572.37	21.106
572.71	21.042
573.04	20.995
573.37	20.914
573.71	20.863
574.04	20.806
574.38	20.718
574.71	20.682
575.04	20.639
575.38	20.582
575.71	20.550
576.05	20.532
576.38	20.544
576.71	20.489
577.05	20.454
577.38	20.397
577.71	20.391
578.05	20.373
578.38	20.302
578.71	20.271
579.05	20.232
579.38	20.168
579.71	20.110
580.05	20.044
580.38	19.978
580.71	19.962
581.05	19.932
581.38	19.912
581.71	19.895
582.05	19.873
582.38	19.826
582.71	19.765
583.04	19.749
583.38	19.670
583.71	19.629
584.04	19.653
584.38	19.613
584.71	19.545
585.04	19.509
585.37	19.479
585.71	19.446
586.04	19.379
586.37	19.372
586.70	19.358
587.04	19.387
587.37	19.358
587.70	19.297
588.03	19.269
588.37	19.266
588.70	19.253
589.03	19.219
589.36	19.195
589.69	19.210
590.03	19.166
590.36	19.112
590.69	19.046
591.02	19.020
591.35	18.933
591.69	18.905
592.02	18.867
592.35	18.806
592.68	18.785
593.01	18.759
593.35	18.764
593.68	18.737
594.01	18.727
594.34	18.696
594.67	18.666
595.00	18.685
595.34	18.638
595.67	18.604
596.00	18.595
596.33	18.559
596.66	18.544
596.99	18.489
597.32	18.484
597.65	18.458
597.99	18.447
598.32	18.405
598.65	18.370
598.98	18.331
599.31	18.324
599.64	18.282
599.97	18.263
600.30	18.249
600.63	18.236
600.96	18.214
601.30	18.193
601.63	18.198
601.96	18.193
602.29	18.184
602.62	18.200
602.95	18.188
603.28	18.163
603.61	18.120
603.94	18.082
604.27	18.064
604.60	18.050
604.93	18.024
605.26	17.976
605.59	17.978
605.92	17.963
606.25	17.924
606.58	17.924
606.91	17.912
607.24	17.922
607.57	17.909
607.90	17.874
608.23	17.799
608.56	17.760
608.89	17.724
609.22	17.682
609.55	17.611
609.88	17.569
610.21	17.495
610.54	17.465
610.87	17.404
611.20	17.334
611.53	17.290
611.86	17.276
612.19	17.240
612.52	17.178
612.85	17.142
613.18	17.142
613.51	17.057
613.84	16.988
614.17	16.929
614.49	16.914
614.82	16.866
615.15	16.850
615.48	16.836
615.81	16.783
616.14	16.813
616.47	16.731
616.80	16.690
617.13	16.686
617.46	16.679
617.78	16.658
618.11	16.603
618.44	16.606
618.77	16.547
619.10	16.499
619.43	16.467
619.76	16.366
620.09	16.392
620.41	16.398
620.74	16.426
621.07	16.436
621.40	16.403
621.73	16.412
622.06	16.383
622.38	16.388
622.71	16.367
623.04	16.439
623.37	16.497
623.70	16.492
624.02	16.477
624.35	16.473
624.68	16.454
625.01	16.457
625.34	16.445
625.66	16.438
625.99	16.453
626.32	16.487
626.65	16.456
626.98	16.460
627.30	16.407
627.63	16.380
627.96	16.374
628.29	16.334
628.61	16.287
628.94	16.255
629.27	16.234
629.60	16.164
629.92	16.101
630.25	16.032
630.58	15.963
630.91	15.976
631.23	15.937
631.56	15.865
631.89	15.809
632.21	15.781
632.54	15.740
632.87	15.676
633.19	15.601
633.52	15.535
633.85	15.484
634.18	15.399
634.50	15.304
634.83	15.227
635.16	15.128
635.48	15.036
635.81	14.938
636.14	14.839
636.46	14.754
636.79	14.680
637.11	14.559
637.44	14.438
637.77	14.313
638.09	14.178
638.42	14.050
638.75	13.987
639.07	13.922
639.40	13.873
639.73	13.758
640.05	13.650
640.38	13.600
640.70	13.532
641.03	13.423
641.36	13.342
641.68	13.313
