OOIBase32 Version 2.0.0.6 Data File
++++++++++++++++++++++++++++++++++++
Date: 01-23-2012, 23:28:17
User: Valued Ocean Optics Customer
Spectrometer Serial Number: USB2E2917
Spectrometer Channel: Master
Integration Time (msec): 5
Spectra Averaged: 10
Boxcar Smoothing: 5
Correct for Electrical Dark: Enabled
Time Normalized: Disabled
Dual-beam Reference: Disabled
Reference Channel: Master
Temperature: Not acquired
Spectrometer Type: S2000
ADC Type: USB2000
Number of Pixels in File: 2048
Graph Title: 
>>>>>Begin Spectral Data<<<<<
180.30	0.000
180.67	0.000
181.03	2.376
181.40	553.226
181.77	169.037
182.14	62.101
182.51	-640.344
182.88	147.148
183.25	42.963
183.62	75.189
183.99	221.038
184.36	-42.250
184.73	559.736
185.10	41.861
185.46	306.861
185.83	46.904
186.20	1647.424
186.57	147.935
186.94	37.452
187.31	51.744
187.68	-34.517
188.05	55.873
188.42	73.777
188.78	136.417
189.15	375.596
189.52	-37.636
189.89	-10.061
190.26	38.648
190.63	30.444
191.00	34.100
191.37	45.138
191.73	43.148
192.10	35.261
192.47	30.936
192.84	26.137
193.21	35.599
193.58	24.938
193.94	27.823
194.31	21.827
194.68	23.223
195.05	23.722
195.42	21.829
195.79	25.761
196.15	52.783
196.52	51.083
196.89	62.855
197.26	50.553
197.63	76.735
198.00	78.974
198.36	78.467
198.73	66.348
199.10	38.431
199.47	33.066
199.84	56.862
200.20	42.562
200.57	43.085
200.94	39.146
201.31	36.301
201.68	18.283
202.04	13.720
202.41	16.711
202.78	16.149
203.15	28.980
203.51	30.549
203.88	12.386
204.25	-0.479
204.62	-1.787
204.98	0.562
205.35	-0.652
205.72	8.667
206.09	20.212
206.46	15.688
206.82	-0.782
207.19	0.568
207.56	-22.531
207.92	-21.828
208.29	1.967
208.66	30.033
209.03	26.665
209.39	39.532
209.76	51.291
210.13	44.013
210.50	25.146
210.86	53.731
211.23	44.790
211.60	51.079
211.96	48.588
212.33	44.290
212.70	20.987
213.07	27.096
213.43	12.939
213.80	1.573
214.17	19.125
214.53	28.429
214.90	33.184
215.27	42.992
215.63	49.954
216.00	51.240
216.37	50.241
216.74	45.704
217.10	42.241
217.47	37.034
217.84	39.654
218.20	34.914
218.57	33.225
218.94	26.037
219.30	18.303
219.67	17.121
220.04	18.541
220.40	15.137
220.77	9.436
221.13	7.495
221.50	9.098
221.87	4.504
222.23	1.887
222.60	-5.879
222.97	-9.345
223.33	-6.826
223.70	-6.725
224.07	-10.318
224.43	-6.517
224.80	1.742
225.16	-0.422
225.53	-0.213
225.90	-2.897
226.26	-1.435
226.63	0.653
226.99	3.297
227.36	4.393
227.73	5.986
228.09	6.462
228.46	7.299
228.82	8.091
229.19	10.101
229.56	9.656
229.92	12.335
230.29	12.180
230.65	13.039
231.02	10.119
231.38	6.595
231.75	3.705
232.12	4.203
232.48	0.763
232.85	-0.978
233.21	-1.899
233.58	-2.465
233.94	-2.417
234.31	-2.325
234.68	-2.951
235.04	-1.751
235.41	0.845
235.77	1.840
236.14	2.532
236.50	4.380
236.87	4.109
237.23	4.576
237.60	4.770
237.96	4.586
238.33	4.153
238.69	3.616
239.06	3.482
239.42	3.871
239.79	3.786
240.15	3.442
240.52	3.544
240.88	4.211
241.25	4.102
241.61	4.535
241.98	4.098
242.34	3.935
242.71	4.674
243.07	4.964
243.44	4.536
243.80	4.195
244.17	4.142
244.53	3.577
244.90	3.326
245.26	3.156
245.63	2.903
245.99	2.976
246.36	2.967
246.72	2.676
247.09	2.481
247.45	2.695
247.81	3.059
248.18	3.196
248.54	3.805
248.91	3.440
249.27	3.607
249.64	3.952
250.00	3.923
250.36	3.981
250.73	3.921
251.09	4.035
251.46	3.585
251.82	3.506
252.19	3.197
252.55	2.840
252.91	2.991
253.28	2.794
253.64	1.853
254.01	1.816
254.37	1.971
254.73	2.217
255.10	2.534
255.46	3.263
255.83	3.277
256.19	3.421
256.55	3.398
256.92	3.481
257.28	3.563
257.65	4.069
258.01	4.059
258.37	4.090
258.74	4.060
259.10	3.961
259.46	3.797
259.83	3.795
260.19	3.708
260.55	3.831
260.92	3.842
261.28	3.950
261.64	4.066
262.01	4.281
262.37	4.500
262.73	4.466
263.10	4.489
263.46	4.502
263.82	4.352
264.19	4.657
264.55	4.624
264.91	4.703
265.28	4.466
265.64	4.236
266.00	3.982
266.37	3.677
266.73	3.789
267.09	4.006
267.46	3.900
267.82	3.805
268.18	3.662
268.54	3.727
268.91	3.797
269.27	3.970
269.63	4.071
270.00	4.155
270.36	4.284
270.72	4.099
271.08	3.929
271.45	3.877
271.81	4.020
272.17	3.962
272.53	3.728
272.90	3.797
273.26	4.038
273.62	3.965
273.98	3.824
274.35	3.788
274.71	3.976
275.07	3.948
275.43	4.061
275.80	3.978
276.16	4.022
276.52	3.997
276.88	3.841
277.25	3.425
277.61	3.109
277.97	3.144
278.33	3.254
278.69	3.003
279.06	2.996
279.42	3.128
279.78	3.333
280.14	3.435
280.50	3.666
280.87	3.732
281.23	3.769
281.59	4.038
281.95	4.063
282.31	4.086
282.68	3.978
283.04	3.862
283.40	3.694
283.76	3.631
284.12	3.639
284.48	3.563
284.85	3.556
285.21	3.568
285.57	3.333
285.93	3.456
286.29	3.193
286.65	3.508
287.02	3.917
287.38	4.077
287.74	3.957
288.10	3.968
288.46	3.983
288.82	3.773
289.18	3.760
289.54	3.921
289.91	3.959
290.27	4.187
290.63	4.277
290.99	4.138
291.35	4.129
291.71	4.346
292.07	4.144
292.43	4.073
292.79	4.178
293.16	4.232
293.52	4.323
293.88	4.271
294.24	4.248
294.60	4.029
294.96	3.844
295.32	3.859
295.68	3.802
296.04	3.954
296.40	4.052
296.76	4.066
297.12	4.019
297.49	3.873
297.85	3.878
298.21	3.819
298.57	3.711
298.93	3.884
299.29	3.665
299.65	3.830
300.01	3.696
300.37	3.646
300.73	3.856
301.09	4.011
301.45	4.137
301.81	4.198
302.17	4.284
302.53	4.427
302.89	4.254
303.25	4.466
303.61	4.270
303.97	4.173
304.33	4.208
304.69	4.133
305.05	3.990
305.41	3.919
305.77	3.861
306.13	3.788
306.49	3.654
306.85	3.736
307.21	3.734
307.57	3.842
307.93	4.010
308.29	4.023
308.65	3.934
309.01	3.944
309.37	3.898
309.73	3.935
310.09	4.048
310.45	4.188
310.81	4.156
311.17	4.001
311.53	3.928
311.89	3.860
312.25	3.844
312.61	3.856
312.96	3.866
313.32	3.957
313.68	3.840
314.04	3.748
314.40	3.768
314.76	3.677
315.12	3.683
315.48	3.668
315.84	3.604
316.20	3.647
316.56	3.697
316.92	3.719
317.27	3.670
317.63	3.719
317.99	3.667
318.35	3.628
318.71	3.742
319.07	3.938
319.43	3.978
319.79	4.128
320.15	4.127
320.50	4.106
320.86	4.176
321.22	4.129
321.58	4.055
321.94	4.092
322.30	4.043
322.66	3.999
323.01	3.863
323.37	3.821
323.73	3.788
324.09	3.688
324.45	3.716
324.81	3.624
325.17	3.790
325.52	3.814
325.88	3.778
326.24	3.722
326.60	3.802
326.96	3.944
327.31	3.902
327.67	3.773
328.03	3.758
328.39	3.563
328.75	3.521
329.11	3.528
329.46	3.575
329.82	3.726
330.18	3.865
330.54	3.783
330.90	3.632
331.25	3.698
331.61	3.834
331.97	3.867
332.33	4.056
332.68	4.123
333.04	4.101
333.40	4.068
333.76	3.918
334.11	3.917
334.47	3.960
334.83	4.009
335.19	3.968
335.54	3.973
335.90	3.930
336.26	3.889
336.62	3.869
336.97	3.727
337.33	3.670
337.69	3.714
338.05	3.686
338.40	3.687
338.76	3.629
339.12	3.674
339.48	3.642
339.83	3.674
340.19	3.704
340.55	3.767
340.90	3.844
341.26	3.862
341.62	3.883
341.97	3.874
342.33	3.948
342.69	4.038
343.04	4.050
343.40	3.985
343.76	3.977
344.12	3.997
344.47	4.047
344.83	4.090
345.19	4.190
345.54	4.182
345.90	4.189
346.26	4.202
346.61	4.199
346.97	4.202
347.32	4.231
347.68	4.189
348.04	4.088
348.39	3.950
348.75	3.965
349.11	3.962
349.46	3.961
349.82	3.946
350.18	3.791
350.53	3.804
350.89	3.762
351.24	3.823
351.60	3.912
351.96	4.064
352.31	4.132
352.67	4.171
353.02	4.107
353.38	4.186
353.74	4.208
354.09	4.277
354.45	4.293
354.80	4.409
355.16	4.445
355.52	4.413
355.87	4.329
356.23	4.333
356.58	4.278
356.94	4.338
357.29	4.298
357.65	4.330
358.00	4.407
358.36	4.365
358.72	4.305
359.07	4.298
359.43	4.383
359.78	4.482
360.14	4.502
360.49	4.500
360.85	4.537
361.20	4.550
361.56	4.561
361.91	4.556
362.27	4.615
362.62	4.645
362.98	4.705
363.33	4.657
363.69	4.646
364.04	4.719
364.40	4.768
364.75	4.772
365.11	4.814
365.46	4.743
365.82	4.773
366.17	4.785
366.53	4.820
366.88	4.806
367.24	4.871
367.59	4.869
367.95	4.834
368.30	4.858
368.66	4.858
369.01	4.862
369.37	5.033
369.72	5.097
370.08	5.150
370.43	5.189
370.78	5.201
371.14	5.180
371.49	5.207
371.85	5.217
372.20	5.192
372.56	5.285
372.91	5.317
373.26	5.298
373.62	5.207
373.97	5.253
374.33	5.259
374.68	5.301
375.03	5.394
375.39	5.390
375.74	5.399
376.10	5.468
376.45	5.466
376.80	5.512
377.16	5.494
377.51	5.598
377.87	5.612
378.22	5.598
378.57	5.623
378.93	5.649
379.28	5.720
379.63	5.716
379.99	5.718
380.34	5.759
380.70	5.767
381.05	5.865
381.40	5.875
381.76	5.923
382.11	5.991
382.46	6.037
382.82	6.072
383.17	6.076
383.52	6.155
383.88	6.159
384.23	6.161
384.58	6.170
384.94	6.133
385.29	6.168
385.64	6.164
385.99	6.189
386.35	6.212
386.70	6.229
387.05	6.274
387.41	6.302
387.76	6.351
388.11	6.367
388.47	6.432
388.82	6.496
389.17	6.538
389.52	6.610
389.88	6.655
390.23	6.680
390.58	6.697
390.93	6.769
391.29	6.839
391.64	6.915
391.99	6.991
392.34	7.012
392.70	7.013
393.05	6.992
393.40	7.000
393.75	7.034
394.11	7.066
394.46	7.069
394.81	7.072
395.16	7.041
395.52	7.058
395.87	7.076
396.22	7.125
396.57	7.151
396.92	7.195
397.28	7.210
397.63	7.187
397.98	7.204
398.33	7.284
398.68	7.295
399.04	7.332
399.39	7.347
399.74	7.354
400.09	7.348
400.44	7.391
400.80	7.419
401.15	7.424
401.50	7.492
401.85	7.547
402.20	7.555
402.55	7.626
402.90	7.652
403.26	7.681
403.61	7.699
403.96	7.722
404.31	7.786
404.66	7.828
405.01	7.885
405.36	7.930
405.72	7.955
406.07	8.006
406.42	7.988
406.77	8.055
407.12	8.122
407.47	8.166
407.82	8.221
408.17	8.233
408.53	8.273
408.88	8.265
409.23	8.258
409.58	8.264
409.93	8.291
410.28	8.363
410.63	8.370
410.98	8.369
411.33	8.421
411.68	8.487
412.03	8.536
412.38	8.568
412.73	8.638
413.09	8.720
413.44	8.783
413.79	8.825
414.14	8.858
414.49	8.914
414.84	8.951
415.19	8.972
415.54	9.005
415.89	9.021
416.24	9.084
416.59	9.110
416.94	9.140
417.29	9.178
417.64	9.196
417.99	9.246
418.34	9.284
418.69	9.334
419.04	9.385
419.39	9.419
419.74	9.459
420.09	9.489
420.44	9.548
420.79	9.582
421.14	9.622
421.49	9.678
421.84	9.709
422.19	9.755
422.54	9.794
422.89	9.828
423.24	9.872
423.59	9.936
423.94	9.963
424.29	10.007
424.64	10.059
424.99	10.106
425.34	10.138
425.68	10.179
426.03	10.207
426.38	10.275
426.73	10.345
427.08	10.389
427.43	10.442
427.78	10.480
428.13	10.522
428.48	10.543
428.83	10.572
429.18	10.622
429.53	10.642
429.87	10.672
430.22	10.673
430.57	10.700
430.92	10.715
431.27	10.751
431.62	10.819
431.97	10.851
432.32	10.902
432.67	10.943
433.01	10.969
433.36	10.993
433.71	11.053
434.06	11.111
434.41	11.147
434.76	11.218
435.11	11.228
435.45	11.243
435.80	11.288
436.15	11.311
436.50	11.363
436.85	11.413
437.20	11.467
437.54	11.484
437.89	11.509
438.24	11.539
438.59	11.579
438.94	11.637
439.29	11.685
439.63	11.734
439.98	11.806
440.33	11.830
440.68	11.878
441.03	11.919
441.37	12.002
441.72	12.040
442.07	12.079
442.42	12.129
442.76	12.174
443.11	12.222
443.46	12.280
443.81	12.317
444.16	12.384
444.50	12.424
444.85	12.482
445.20	12.521
445.55	12.605
445.89	12.674
446.24	12.704
446.59	12.737
446.94	12.773
447.28	12.788
447.63	12.830
447.98	12.854
448.32	12.917
448.67	12.971
449.02	13.000
449.37	12.998
449.71	13.033
450.06	13.081
450.41	13.149
450.75	13.214
451.10	13.279
451.45	13.304
451.79	13.355
452.14	13.382
452.49	13.431
452.84	13.498
453.18	13.559
453.53	13.614
453.88	13.668
454.22	13.714
454.57	13.742
454.92	13.779
455.26	13.879
455.61	13.968
455.95	14.035
456.30	14.069
456.65	14.114
456.99	14.169
457.34	14.217
457.69	14.260
458.03	14.316
458.38	14.381
458.73	14.445
459.07	14.500
459.42	14.541
459.76	14.584
460.11	14.645
460.46	14.697
460.80	14.764
461.15	14.847
461.49	14.911
461.84	14.973
462.19	15.038
462.53	15.094
462.88	15.151
463.22	15.209
463.57	15.270
463.91	15.321
464.26	15.404
464.61	15.445
464.95	15.465
465.30	15.519
465.64	15.569
465.99	15.641
466.33	15.704
466.68	15.731
467.02	15.785
467.37	15.832
467.71	15.879
468.06	15.914
468.41	15.974
468.75	16.049
469.10	16.114
469.44	16.164
469.79	16.195
470.13	16.230
470.48	16.285
470.82	16.312
471.17	16.388
471.51	16.452
471.86	16.483
472.20	16.518
472.55	16.552
472.89	16.580
473.23	16.628
473.58	16.677
473.92	16.734
474.27	16.770
474.61	16.822
474.96	16.841
475.30	16.895
475.65	16.970
475.99	17.030
476.34	17.113
476.68	17.157
477.02	17.218
477.37	17.273
477.71	17.368
478.06	17.448
478.40	17.574
478.75	17.715
479.09	17.875
479.43	18.091
479.78	18.430
480.12	18.772
480.47	19.158
480.81	19.549
481.15	19.945
481.50	20.330
481.84	20.793
482.19	21.259
482.53	21.682
482.87	21.987
483.22	22.091
483.56	21.947
483.90	21.689
484.25	21.335
484.59	20.929
484.94	20.563
485.28	20.258
485.62	19.886
485.97	19.484
486.31	19.152
486.65	18.923
487.00	18.856
487.34	18.939
487.68	19.110
488.03	19.346
488.37	19.604
488.71	19.779
489.06	19.844
489.40	19.889
489.74	19.916
490.09	19.929
490.43	19.951
490.77	19.988
491.11	20.021
491.46	20.046
491.80	20.047
492.14	20.051
492.49	20.067
492.83	20.061
493.17	20.074
493.51	20.105
493.86	20.128
494.20	20.179
494.54	20.181
494.88	20.225
495.23	20.272
495.57	20.328
495.91	20.387
496.25	20.448
496.60	20.522
496.94	20.581
497.28	20.653
497.62	20.710
497.97	20.739
498.31	20.824
498.65	20.873
498.99	20.933
499.33	21.036
499.68	21.088
500.02	21.172
500.36	21.218
500.70	21.287
501.04	21.335
501.39	21.399
501.73	21.467
502.07	21.512
502.41	21.608
502.75	21.676
503.09	21.725
503.44	21.797
503.78	21.834
504.12	21.906
504.46	21.951
504.80	22.019
505.14	22.103
505.49	22.163
505.83	22.258
506.17	22.308
506.51	22.376
506.85	22.448
507.19	22.508
507.53	22.576
507.87	22.649
508.22	22.729
508.56	22.793
508.90	22.823
509.24	22.906
509.58	22.954
509.92	23.004
510.26	23.067
510.60	23.118
510.94	23.187
511.28	23.237
511.63	23.315
511.97	23.374
512.31	23.470
512.65	23.568
512.99	23.628
513.33	23.738
513.67	23.851
514.01	23.938
514.35	24.032
514.69	24.120
515.03	24.221
515.37	24.317
515.71	24.408
516.05	24.462
516.39	24.540
516.73	24.631
517.07	24.679
517.41	24.719
517.75	24.780
518.09	24.833
518.43	24.887
518.77	24.925
519.11	24.964
519.45	25.001
519.79	25.073
520.13	25.116
520.47	25.161
520.81	25.204
521.15	25.290
521.49	25.351
521.83	25.435
522.17	25.514
522.51	25.646
522.85	25.748
523.19	25.892
523.53	26.046
523.87	26.235
524.21	26.460
524.55	26.684
524.89	26.907
525.23	27.148
525.57	27.355
525.91	27.563
526.25	27.729
526.58	27.899
526.92	28.039
527.26	28.137
527.60	28.198
527.94	28.248
528.28	28.278
528.62	28.277
528.96	28.262
529.30	28.236
529.64	28.197
529.97	28.169
530.31	28.136
530.65	28.119
530.99	28.152
531.33	28.204
531.67	28.223
532.01	28.259
532.35	28.306
532.68	28.333
533.02	28.366
533.36	28.407
533.70	28.437
534.04	28.476
534.38	28.508
534.71	28.522
535.05	28.575
535.39	28.616
535.73	28.692
536.07	28.759
536.41	28.813
536.74	28.895
537.08	28.969
537.42	29.113
537.76	29.247
538.10	29.393
538.43	29.521
538.77	29.630
539.11	29.751
539.45	29.860
539.79	29.963
540.12	30.081
540.46	30.184
540.80	30.267
541.14	30.285
541.47	30.289
541.81	30.314
542.15	30.347
542.49	30.364
542.82	30.393
543.16	30.402
543.50	30.427
543.84	30.440
544.17	30.457
544.51	30.508
544.85	30.553
545.18	30.632
545.52	30.678
545.86	30.757
546.20	30.854
546.53	30.912
546.87	30.989
547.21	31.049
547.54	31.121
547.88	31.198
548.22	31.267
548.55	31.371
548.89	31.472
549.23	31.539
549.56	31.611
549.90	31.681
550.24	31.763
550.57	31.846
550.91	31.909
551.25	32.013
551.58	32.102
551.92	32.149
552.26	32.227
552.59	32.304
552.93	32.414
553.27	32.499
553.60	32.577
553.94	32.674
554.27	32.749
554.61	32.891
554.95	32.946
555.28	33.023
555.62	33.135
555.95	33.264
556.29	33.340
556.63	33.432
556.96	33.525
557.30	33.603
557.63	33.674
557.97	33.736
558.31	33.769
558.64	33.850
558.98	33.940
559.31	34.043
559.65	34.096
559.98	34.181
560.32	34.242
560.65	34.286
560.99	34.353
561.33	34.449
561.66	34.533
562.00	34.635
562.33	34.741
562.67	34.787
563.00	34.854
563.34	34.919
563.67	34.984
564.01	35.046
564.34	35.128
564.68	35.192
565.01	35.275
565.35	35.358
565.68	35.428
566.02	35.505
566.35	35.607
566.69	35.665
567.02	35.766
567.36	35.850
567.69	35.948
568.03	36.040
568.36	36.128
568.69	36.180
569.03	36.273
569.36	36.356
569.70	36.405
570.03	36.468
570.37	36.553
570.70	36.640
571.04	36.728
571.37	36.804
571.70	36.914
572.04	37.019
572.37	37.123
572.71	37.171
573.04	37.281
573.37	37.403
573.71	37.538
574.04	37.647
574.38	37.714
574.71	37.822
575.04	37.946
575.38	38.043
575.71	38.140
576.05	38.223
576.38	38.384
576.71	38.453
577.05	38.531
577.38	38.598
577.71	38.677
578.05	38.745
578.38	38.832
578.71	38.882
579.05	38.953
579.38	39.032
579.71	39.131
580.05	39.154
580.38	39.211
580.71	39.308
581.05	39.400
581.38	39.502
581.71	39.630
582.05	39.679
582.38	39.788
582.71	39.838
583.04	39.951
583.38	40.014
583.71	40.133
584.04	40.228
584.38	40.313
584.71	40.379
585.04	40.486
585.37	40.595
585.71	40.683
586.04	40.742
586.37	40.835
586.70	40.885
587.04	40.979
587.37	41.048
587.70	41.139
588.03	41.211
588.37	41.307
588.70	41.372
589.03	41.428
589.36	41.514
589.69	41.593
590.03	41.681
590.36	41.785
590.69	41.840
591.02	41.917
591.35	41.978
591.69	42.048
592.02	42.144
592.35	42.175
592.68	42.211
593.01	42.247
593.35	42.337
593.68	42.410
594.01	42.484
594.34	42.562
594.67	42.616
595.00	42.701
595.34	42.754
595.67	42.788
596.00	42.912
596.33	43.027
596.66	43.166
596.99	43.263
597.32	43.395
597.65	43.485
597.99	43.606
598.32	43.730
598.65	43.803
598.98	43.925
599.31	44.056
599.64	44.092
599.97	44.101
600.30	44.121
600.63	44.168
600.96	44.171
601.30	44.254
601.63	44.305
601.96	44.362
602.29	44.444
602.62	44.513
602.95	44.534
603.28	44.623
603.61	44.763
603.94	44.879
604.27	45.007
604.60	45.122
604.93	45.178
605.26	45.277
605.59	45.397
605.92	45.486
606.25	45.612
606.58	45.771
606.91	45.868
607.24	45.935
607.57	46.045
607.90	46.104
608.23	46.186
608.56	46.297
608.89	46.383
609.22	46.529
609.55	46.642
609.88	46.725
610.21	46.792
610.54	46.864
610.87	47.005
611.20	47.106
611.53	47.234
611.86	47.358
612.19	47.482
612.52	47.585
612.85	47.632
613.18	47.758
613.51	47.850
613.84	47.977
614.17	48.139
614.49	48.239
614.82	48.332
615.15	48.467
615.48	48.575
615.81	48.624
616.14	48.726
616.47	48.829
616.80	48.946
617.13	48.996
617.46	49.010
617.78	49.095
618.11	49.184
618.44	49.310
618.77	49.359
619.10	49.436
619.43	49.522
619.76	49.622
620.09	49.686
620.41	49.785
620.74	49.919
621.07	50.111
621.40	50.189
621.73	50.306
622.06	50.351
622.38	50.446
622.71	50.539
623.04	50.695
623.37	50.770
623.70	50.891
624.02	50.902
624.35	50.971
624.68	51.032
625.01	51.102
625.34	51.161
625.66	51.256
625.99	51.356
626.32	51.435
626.65	51.494
626.98	51.659
627.30	51.750
627.63	51.891
627.96	51.984
628.29	52.047
628.61	52.160
628.94	52.207
629.27	52.310
629.60	52.438
629.92	52.559
630.25	52.755
630.58	52.821
630.91	52.914
631.23	53.042
631.56	53.176
631.89	53.353
632.21	53.508
632.54	53.682
632.87	53.803
633.19	53.862
633.52	54.020
633.85	54.067
634.18	54.168
634.50	54.310
634.83	54.377
635.16	54.487
635.48	54.553
635.81	54.633
636.14	54.765
636.46	54.933
636.79	55.080
637.11	55.121
637.44	55.225
637.77	55.361
638.09	55.475
638.42	55.604
638.75	55.741
639.07	55.919
639.40	56.061
639.73	56.182
640.05	56.275
640.38	56.379
640.70	56.526
641.03	56.624
641.36	56.669
641.68	56.728
642.01	56.838
642.33	56.979
642.66	57.148
642.98	57.258
643.31	57.390
643.64	57.466
643.96	57.641
644.29	57.759
644.61	57.885
644.94	58.089
