OOIBase32 Version 2.0.0.6 Data File
++++++++++++++++++++++++++++++++++++
Date: 01-23-2012, 23:23:31
User: Valued Ocean Optics Customer
Spectrometer Serial Number: USB2E2917
Spectrometer Channel: Master
Integration Time (msec): 5
Spectra Averaged: 10
Boxcar Smoothing: 5
Correct for Electrical Dark: Enabled
Time Normalized: Disabled
Dual-beam Reference: Disabled
Reference Channel: Master
Temperature: Not acquired
Spectrometer Type: S2000
ADC Type: USB2000
Number of Pixels in File: 2048
Graph Title: 
>>>>>Begin Spectral Data<<<<<
180.30	0.000
180.67	0.000
181.03	-8.108
181.40	706.771
181.77	-7591.361
182.14	101.291
182.51	-338.064
182.88	199.764
183.25	28.777
183.62	52.389
183.99	113.784
184.36	86.053
184.73	-113.436
185.10	12.973
185.46	-495.929
185.83	417.464
186.20	1285.797
186.57	-21.320
186.94	58.724
187.31	65.401
187.68	-32.213
188.05	74.349
188.42	120.195
188.78	233.012
189.15	640.124
189.52	-116.310
189.89	-23.925
190.26	-1.835
190.63	18.265
191.00	26.448
191.37	22.207
191.73	33.628
192.10	31.779
192.47	25.945
192.84	26.797
193.21	28.330
193.58	23.279
193.94	3.944
194.31	-13.326
194.68	-26.423
195.05	-40.284
195.42	-27.002
195.79	-56.294
196.15	-84.301
196.52	-108.792
196.89	-99.579
197.26	-104.565
197.63	-76.464
198.00	-64.983
198.36	-65.772
198.73	-89.666
199.10	-73.612
199.47	-74.942
199.84	-58.799
200.20	-36.676
200.57	-17.107
200.94	-33.109
201.31	-41.459
201.68	-50.788
202.04	-48.017
202.41	-41.729
202.78	-50.847
203.15	-48.388
203.51	-52.040
203.88	-53.424
204.25	-68.798
204.62	-95.012
204.98	-90.714
205.35	-91.102
205.72	-89.238
206.09	-70.813
206.46	-119.285
206.82	-86.817
207.19	-92.867
207.56	-140.772
207.92	-132.659
208.29	-120.692
208.66	-67.986
209.03	-66.096
209.39	-34.873
209.76	-23.998
210.13	-71.614
210.50	-64.787
210.86	-66.541
211.23	-77.780
211.60	-60.633
211.96	-58.419
212.33	-54.288
212.70	-70.611
213.07	-74.846
213.43	-133.518
213.80	-157.213
214.17	-82.210
214.53	-52.122
214.90	-41.712
215.27	-29.676
215.63	-31.088
216.00	-24.784
216.37	-24.367
216.74	-27.279
217.10	-15.101
217.47	-0.609
217.84	10.365
218.20	4.659
218.57	7.285
218.94	8.245
219.30	9.126
219.67	11.726
220.04	15.570
220.40	9.620
220.77	5.810
221.13	2.830
221.50	-1.165
221.87	0.627
222.23	-4.695
222.60	-11.859
222.97	-10.311
223.33	-8.878
223.70	-6.662
224.07	-8.838
224.43	-5.187
224.80	1.786
225.16	0.743
225.53	0.248
225.90	-3.378
226.26	0.889
226.63	2.728
226.99	2.651
227.36	2.814
227.73	3.997
228.09	3.349
228.46	3.888
228.82	2.604
229.19	1.602
229.56	2.898
229.92	5.234
230.29	3.390
230.65	1.490
231.02	0.428
231.38	-3.249
231.75	-4.621
232.12	-5.190
232.48	-7.278
232.85	-8.063
233.21	-6.971
233.58	-9.789
233.94	-10.833
234.31	-9.525
234.68	-8.900
235.04	-8.164
235.41	-5.530
235.77	-4.985
236.14	-2.694
236.50	-1.068
236.87	0.251
237.23	1.135
237.60	2.292
237.96	3.242
238.33	2.147
238.69	2.262
239.06	2.007
239.42	2.378
239.79	2.163
240.15	1.841
240.52	2.515
240.88	3.108
241.25	3.057
241.61	2.943
241.98	2.716
242.34	2.855
242.71	3.094
243.07	3.462
243.44	3.192
243.80	3.228
244.17	2.914
244.53	2.170
244.90	1.693
245.26	1.540
245.63	1.656
245.99	1.546
246.36	1.251
246.72	1.192
247.09	0.880
247.45	0.907
247.81	1.038
248.18	1.019
248.54	1.778
248.91	1.505
249.27	1.753
249.64	1.588
250.00	1.516
250.36	1.516
250.73	1.379
251.09	1.590
251.46	1.389
251.82	1.069
252.19	0.837
252.55	-0.389
252.91	0.042
253.28	-0.269
253.64	-0.247
254.01	0.148
254.37	0.874
254.73	1.211
255.10	1.171
255.46	1.689
255.83	2.025
256.19	2.447
256.55	2.487
256.92	2.510
257.28	2.658
257.65	2.841
258.01	2.821
258.37	2.741
258.74	2.624
259.10	2.528
259.46	2.264
259.83	2.054
260.19	1.924
260.55	2.018
260.92	2.041
261.28	1.729
261.64	1.564
262.01	1.484
262.37	1.706
262.73	1.561
263.10	1.897
263.46	2.194
263.82	1.965
264.19	1.843
264.55	1.675
264.91	1.397
265.28	1.667
265.64	1.652
266.00	1.606
266.37	1.205
266.73	1.368
267.09	1.293
267.46	1.094
267.82	1.030
268.18	1.337
268.54	1.560
268.91	1.644
269.27	1.475
269.63	1.634
270.00	1.428
270.36	1.477
270.72	1.613
271.08	1.434
271.45	1.559
271.81	1.792
272.17	1.589
272.53	1.671
272.90	1.875
273.26	2.101
273.62	1.818
273.98	1.892
274.35	1.989
274.71	1.994
275.07	2.077
275.43	1.959
275.80	1.924
276.16	1.907
276.52	1.806
276.88	1.836
277.25	1.560
277.61	1.516
277.97	1.405
278.33	1.529
278.69	1.128
279.06	1.296
279.42	1.448
279.78	1.496
280.14	1.601
280.50	1.859
280.87	1.835
281.23	1.929
281.59	2.127
281.95	2.389
282.31	2.363
282.68	2.400
283.04	2.443
283.40	2.454
283.76	2.441
284.12	2.473
284.48	2.323
284.85	2.330
285.21	2.352
285.57	2.222
285.93	2.170
286.29	2.082
286.65	2.225
287.02	2.377
287.38	2.301
287.74	2.247
288.10	2.192
288.46	2.209
288.82	2.014
289.18	1.920
289.54	1.961
289.91	1.956
290.27	2.024
290.63	2.119
290.99	1.942
291.35	2.140
291.71	2.324
292.07	2.254
292.43	2.055
292.79	2.143
293.16	2.081
293.52	2.191
293.88	2.306
294.24	2.290
294.60	2.215
294.96	2.205
295.32	2.135
295.68	2.129
296.04	2.195
296.40	2.369
296.76	2.359
297.12	2.466
297.49	2.355
297.85	2.183
298.21	2.199
298.57	2.092
298.93	2.071
299.29	1.923
299.65	1.819
300.01	1.763
300.37	1.681
300.73	1.867
301.09	1.949
301.45	2.180
301.81	2.387
302.17	2.361
302.53	2.369
302.89	2.300
303.25	2.384
303.61	2.505
303.97	2.426
304.33	2.407
304.69	2.326
305.05	2.202
305.41	1.892
305.77	1.779
306.13	1.815
306.49	1.840
306.85	1.930
307.21	1.943
307.57	1.944
307.93	2.029
308.29	2.185
308.65	2.246
309.01	2.200
309.37	2.283
309.73	2.347
310.09	2.446
310.45	2.548
310.81	2.502
311.17	2.459
311.53	2.417
311.89	2.480
312.25	2.423
312.61	2.345
312.96	2.455
313.32	2.541
313.68	2.434
314.04	2.381
314.40	2.342
314.76	2.328
315.12	2.388
315.48	2.314
315.84	2.202
316.20	2.204
316.56	2.244
316.92	2.184
317.27	2.017
317.63	2.095
317.99	1.900
318.35	1.871
318.71	1.937
319.07	1.982
319.43	2.038
319.79	2.110
320.15	2.130
320.50	2.098
320.86	2.159
321.22	2.212
321.58	2.065
321.94	2.089
322.30	2.070
322.66	1.980
323.01	1.785
323.37	1.736
323.73	1.679
324.09	1.556
324.45	1.555
324.81	1.485
325.17	1.529
325.52	1.558
325.88	1.553
326.24	1.538
326.60	1.585
326.96	1.719
327.31	1.726
327.67	1.707
328.03	1.793
328.39	1.717
328.75	1.782
329.11	1.919
329.46	2.093
329.82	2.178
330.18	2.182
330.54	2.198
330.90	2.190
331.25	2.153
331.61	2.300
331.97	2.276
332.33	2.424
332.68	2.442
333.04	2.415
333.40	2.281
333.76	2.300
334.11	2.352
334.47	2.361
334.83	2.381
335.19	2.365
335.54	2.258
335.90	2.240
336.26	2.153
336.62	2.050
336.97	1.910
337.33	1.844
337.69	1.784
338.05	1.704
338.40	1.642
338.76	1.592
339.12	1.692
339.48	1.697
339.83	1.712
340.19	1.785
340.55	1.914
340.90	1.909
341.26	1.916
341.62	1.939
341.97	1.945
342.33	1.992
342.69	1.993
343.04	1.967
343.40	1.944
343.76	1.873
344.12	1.877
344.47	1.889
344.83	1.998
345.19	2.091
345.54	2.038
345.90	2.059
346.26	2.086
346.61	2.093
346.97	2.099
347.32	2.144
347.68	2.178
348.04	2.066
348.39	1.945
348.75	1.900
349.11	1.858
349.46	1.900
349.82	1.895
350.18	1.814
350.53	1.878
350.89	1.926
351.24	1.906
351.60	1.938
351.96	2.050
352.31	2.055
352.67	2.026
353.02	1.993
353.38	1.978
353.74	1.992
354.09	1.993
354.45	1.962
354.80	1.922
355.16	1.974
355.52	1.937
355.87	1.815
356.23	1.864
356.58	1.937
356.94	1.998
357.29	2.029
357.65	2.022
358.00	2.063
358.36	2.075
358.72	2.066
359.07	2.036
359.43	2.064
359.78	2.131
360.14	2.134
360.49	2.066
360.85	2.024
361.20	2.002
361.56	1.976
361.91	1.956
362.27	1.916
362.62	1.893
362.98	1.888
363.33	1.843
363.69	1.797
364.04	1.815
364.40	1.818
364.75	1.843
365.11	1.819
365.46	1.838
365.82	1.873
366.17	1.929
366.53	1.993
366.88	1.977
367.24	2.035
367.59	2.045
367.95	2.024
368.30	2.027
368.66	2.008
369.01	2.046
369.37	2.042
369.72	2.039
370.08	2.029
370.43	1.973
370.78	1.990
371.14	1.932
371.49	1.930
371.85	1.918
372.20	1.948
372.56	1.987
372.91	1.970
373.26	1.975
373.62	1.926
373.97	1.899
374.33	1.887
374.68	1.910
375.03	1.959
375.39	1.957
375.74	1.974
376.10	1.965
376.45	1.978
376.80	2.009
377.16	2.024
377.51	2.064
377.87	2.071
378.22	2.056
378.57	2.051
378.93	2.085
379.28	2.139
379.63	2.128
379.99	2.154
380.34	2.145
380.70	2.126
381.05	2.145
381.40	2.131
381.76	2.150
382.11	2.187
382.46	2.227
382.82	2.213
383.17	2.185
383.52	2.179
383.88	2.116
384.23	2.091
384.58	2.104
384.94	2.099
385.29	2.135
385.64	2.143
385.99	2.189
386.35	2.145
386.70	2.151
387.05	2.104
387.41	2.100
387.76	2.126
388.11	2.121
388.47	2.101
388.82	2.124
389.17	2.120
389.52	2.113
389.88	2.112
390.23	2.115
390.58	2.135
390.93	2.184
391.29	2.199
391.64	2.223
391.99	2.267
392.34	2.290
392.70	2.244
393.05	2.216
393.40	2.233
393.75	2.182
394.11	2.200
394.46	2.145
394.81	2.139
395.16	2.092
395.52	2.072
395.87	2.040
396.22	2.047
396.57	2.020
396.92	2.004
397.28	1.946
397.63	1.945
397.98	1.920
398.33	1.923
398.68	1.903
399.04	1.965
399.39	1.958
399.74	1.944
400.09	1.922
400.44	1.964
400.80	2.002
401.15	2.023
401.50	2.045
401.85	2.048
402.20	2.047
402.55	2.070
402.90	2.024
403.26	2.036
403.61	2.011
403.96	2.000
404.31	1.995
404.66	1.980
405.01	1.971
405.36	1.963
405.72	1.951
406.07	1.964
406.42	1.945
406.77	1.962
407.12	1.931
407.47	1.999
407.82	1.995
408.17	2.003
408.53	2.003
408.88	1.987
409.23	1.981
409.58	1.976
409.93	1.963
410.28	1.976
410.63	1.946
410.98	1.960
411.33	1.914
411.68	1.944
412.03	1.946
412.38	1.931
412.73	1.970
413.09	1.997
413.44	2.019
413.79	2.047
414.14	2.063
414.49	2.122
414.84	2.148
415.19	2.182
415.54	2.199
415.89	2.211
416.24	2.263
416.59	2.281
416.94	2.284
417.29	2.305
417.64	2.309
417.99	2.320
418.34	2.320
418.69	2.330
419.04	2.336
419.39	2.348
419.74	2.376
420.09	2.372
420.44	2.380
420.79	2.399
421.14	2.403
421.49	2.424
421.84	2.434
422.19	2.449
422.54	2.452
422.89	2.441
423.24	2.423
423.59	2.402
423.94	2.394
424.29	2.389
424.64	2.374
424.99	2.361
425.34	2.331
425.68	2.310
426.03	2.281
426.38	2.259
426.73	2.271
427.08	2.278
427.43	2.280
427.78	2.277
428.13	2.272
428.48	2.292
428.83	2.297
429.18	2.315
429.53	2.327
429.87	2.318
430.22	2.324
430.57	2.332
430.92	2.328
431.27	2.333
431.62	2.322
431.97	2.324
432.32	2.306
432.67	2.302
433.01	2.275
433.36	2.261
433.71	2.266
434.06	2.265
434.41	2.255
434.76	2.257
435.11	2.244
435.45	2.266
435.80	2.261
436.15	2.273
436.50	2.277
436.85	2.296
437.20	2.301
437.54	2.312
437.89	2.320
438.24	2.339
438.59	2.344
438.94	2.336
439.29	2.330
439.63	2.336
439.98	2.330
440.33	2.315
440.68	2.307
441.03	2.313
441.37	2.321
441.72	2.338
442.07	2.336
442.42	2.347
442.76	2.374
443.11	2.383
443.46	2.391
443.81	2.395
444.16	2.423
444.50	2.436
444.85	2.434
445.20	2.426
445.55	2.413
445.89	2.403
446.24	2.390
446.59	2.372
446.94	2.349
447.28	2.315
447.63	2.297
447.98	2.266
448.32	2.244
448.67	2.230
449.02	2.213
449.37	2.177
449.71	2.180
450.06	2.177
450.41	2.175
450.75	2.184
451.10	2.198
451.45	2.185
451.79	2.179
452.14	2.182
452.49	2.173
452.84	2.166
453.18	2.170
453.53	2.151
453.88	2.149
454.22	2.144
454.57	2.160
454.92	2.188
455.26	2.218
455.61	2.255
455.95	2.278
456.30	2.300
456.65	2.331
456.99	2.355
457.34	2.381
457.69	2.395
458.03	2.416
458.38	2.430
458.73	2.419
459.07	2.406
459.42	2.381
459.76	2.361
460.11	2.331
460.46	2.297
460.80	2.286
461.15	2.268
461.49	2.261
461.84	2.246
462.19	2.220
462.53	2.214
462.88	2.232
463.22	2.238
463.57	2.243
463.91	2.273
464.26	2.286
464.61	2.285
464.95	2.272
465.30	2.257
465.64	2.255
465.99	2.262
466.33	2.269
466.68	2.261
467.02	2.256
467.37	2.252
467.71	2.242
468.06	2.254
468.41	2.240
468.75	2.244
469.10	2.260
469.44	2.250
469.79	2.230
470.13	2.201
470.48	2.181
470.82	2.172
471.17	2.173
471.51	2.158
471.86	2.137
472.20	2.135
472.55	2.125
472.89	2.114
473.23	2.094
473.58	2.101
473.92	2.093
474.27	2.093
474.61	2.088
474.96	2.071
475.30	2.074
475.65	2.062
475.99	2.058
476.34	2.063
476.68	2.057
477.02	2.071
477.37	2.077
477.71	2.118
478.06	2.144
478.40	2.205
478.75	2.282
479.09	2.376
479.43	2.479
479.78	2.579
480.12	2.677
480.47	2.782
480.81	2.879
481.15	2.969
481.50	3.054
481.84	3.146
482.19	3.227
482.53	3.311
482.87	3.358
483.22	3.363
483.56	3.328
483.90	3.266
484.25	3.188
484.59	3.109
484.94	3.034
485.28	2.964
485.62	2.885
485.97	2.809
486.31	2.723
486.65	2.668
487.00	2.641
487.34	2.641
487.68	2.652
488.03	2.664
488.37	2.674
488.71	2.671
489.06	2.660
489.40	2.664
489.74	2.645
490.09	2.634
490.43	2.606
490.77	2.570
491.11	2.544
491.46	2.523
491.80	2.494
492.14	2.458
492.49	2.438
492.83	2.396
493.17	2.333
493.51	2.296
493.86	2.248
494.20	2.204
494.54	2.187
494.88	2.180
495.23	2.169
495.57	2.171
495.91	2.189
496.25	2.197
496.60	2.209
496.94	2.212
497.28	2.206
497.62	2.200
497.97	2.207
498.31	2.208
498.65	2.194
498.99	2.181
499.33	2.173
499.68	2.164
500.02	2.156
500.36	2.142
500.70	2.141
501.04	2.140
501.39	2.129
501.73	2.129
502.07	2.146
502.41	2.151
502.75	2.169
503.09	2.177
503.44	2.180
503.78	2.161
504.12	2.162
504.46	2.178
504.80	2.191
505.14	2.228
505.49	2.244
505.83	2.249
506.17	2.270
506.51	2.283
506.85	2.296
507.19	2.311
507.53	2.332
507.87	2.351
508.22	2.352
508.56	2.350
508.90	2.332
509.24	2.339
509.58	2.322
509.92	2.323
510.26	2.306
510.60	2.307
510.94	2.306
511.28	2.294
511.63	2.294
511.97	2.289
512.31	2.297
512.65	2.313
512.99	2.311
513.33	2.343
513.67	2.355
514.01	2.394
514.35	2.427
514.69	2.453
515.03	2.502
515.37	2.539
515.71	2.578
516.05	2.601
516.39	2.617
516.73	2.633
517.07	2.643
517.41	2.638
517.75	2.625
518.09	2.608
518.43	2.587
518.77	2.552
519.11	2.524
519.45	2.490
519.79	2.481
520.13	2.452
520.47	2.449
520.81	2.447
521.15	2.474
521.49	2.489
521.83	2.508
522.17	2.536
522.51	2.578
522.85	2.630
523.19	2.707
523.53	2.777
523.87	2.888
524.21	2.971
524.55	3.045
524.89	3.105
525.23	3.181
525.57	3.238
525.91	3.289
526.25	3.331
526.58	3.377
526.92	3.408
527.26	3.428
527.60	3.426
527.94	3.416
528.28	3.399
528.62	3.376
528.96	3.346
529.30	3.325
529.64	3.311
529.97	3.288
530.31	3.248
530.65	3.211
530.99	3.190
531.33	3.173
531.67	3.163
532.01	3.166
532.35	3.172
532.68	3.165
533.02	3.149
533.36	3.129
533.70	3.123
534.04	3.113
534.38	3.111
534.71	3.095
535.05	3.067
535.39	3.054
535.73	3.036
536.07	3.030
536.41	3.043
536.74	3.064
537.08	3.093
537.42	3.127
537.76	3.167
538.10	3.201
538.43	3.235
538.77	3.279
539.11	3.318
539.45	3.355
539.79	3.387
540.12	3.405
540.46	3.420
540.80	3.425
541.14	3.413
541.47	3.390
541.81	3.372
542.15	3.352
542.49	3.335
542.82	3.314
543.16	3.283
543.50	3.251
543.84	3.216
544.17	3.186
544.51	3.164
544.85	3.148
545.18	3.143
545.52	3.141
545.86	3.120
546.20	3.100
546.53	3.070
546.87	3.047
547.21	3.018
547.54	2.993
547.88	2.979
548.22	2.951
548.55	2.946
548.89	2.941
549.23	2.927
549.56	2.928
549.90	2.935
550.24	2.937
550.57	2.940
550.91	2.944
551.25	2.970
551.58	2.959
551.92	2.957
552.26	2.936
552.59	2.929
552.93	2.909
553.27	2.915
553.60	2.905
553.94	2.901
554.27	2.906
554.61	2.913
554.95	2.904
555.28	2.925
555.62	2.927
555.95	2.943
556.29	2.970
556.63	2.980
556.96	2.961
557.30	2.967
557.63	2.974
557.97	2.969
558.31	2.962
558.64	2.956
558.98	2.972
559.31	3.006
559.65	3.029
559.98	3.011
560.32	3.016
560.65	3.054
560.99	3.079
561.33	3.097
561.66	3.124
562.00	3.172
562.33	3.205
562.67	3.222
563.00	3.214
563.34	3.226
563.67	3.251
564.01	3.280
564.34	3.283
564.68	3.301
565.01	3.327
565.35	3.331
565.68	3.329
566.02	3.325
566.35	3.322
566.69	3.338
567.02	3.352
567.36	3.374
567.69	3.396
568.03	3.445
568.36	3.452
568.69	3.453
569.03	3.476
569.36	3.482
569.70	3.501
570.03	3.539
570.37	3.546
570.70	3.560
571.04	3.559
571.37	3.564
571.70	3.546
572.04	3.550
572.37	3.563
572.71	3.575
573.04	3.590
573.37	3.605
573.71	3.594
574.04	3.617
574.38	3.592
574.71	3.606
575.04	3.597
575.38	3.581
575.71	3.573
576.05	3.559
576.38	3.548
576.71	3.517
577.05	3.506
577.38	3.489
577.71	3.451
578.05	3.459
578.38	3.446
578.71	3.428
579.05	3.425
579.38	3.414
579.71	3.408
580.05	3.385
580.38	3.406
580.71	3.396
581.05	3.412
581.38	3.436
581.71	3.443
582.05	3.443
582.38	3.469
582.71	3.484
583.04	3.501
583.38	3.491
583.71	3.521
584.04	3.508
584.38	3.534
584.71	3.540
585.04	3.550
585.37	3.577
585.71	3.591
586.04	3.602
586.37	3.642
586.70	3.677
587.04	3.718
587.37	3.744
587.70	3.777
588.03	3.800
588.37	3.833
588.70	3.851
589.03	3.862
589.36	3.889
589.69	3.895
590.03	3.892
590.36	3.884
590.69	3.871
591.02	3.852
591.35	3.844
591.69	3.841
592.02	3.834
592.35	3.857
592.68	3.883
593.01	3.876
593.35	3.907
593.68	3.908
594.01	3.934
594.34	3.945
594.67	3.977
595.00	4.002
595.34	4.009
595.67	3.992
596.00	3.984
596.33	3.948
596.66	3.930
596.99	3.888
597.32	3.879
597.65	3.860
597.99	3.837
598.32	3.783
598.65	3.754
598.98	3.741
599.31	3.757
599.64	3.779
599.97	3.797
600.30	3.829
600.63	3.854
600.96	3.889
601.30	3.896
601.63	3.946
601.96	3.999
602.29	4.026
602.62	4.023
602.95	4.017
603.28	4.004
603.61	4.005
603.94	4.011
604.27	4.026
604.60	3.994
604.93	4.008
605.26	4.009
605.59	3.994
605.92	3.990
606.25	4.003
606.58	4.024
606.91	4.006
607.24	4.011
607.57	3.997
607.90	3.997
608.23	4.017
608.56	3.994
608.89	3.960
609.22	3.962
609.55	3.956
609.88	3.935
610.21	3.913
610.54	3.898
610.87	3.872
611.20	3.853
611.53	3.827
611.86	3.793
612.19	3.764
612.52	3.767
612.85	3.766
613.18	3.775
613.51	3.768
613.84	3.744
614.17	3.744
614.49	3.772
614.82	3.772
615.15	3.790
615.48	3.819
615.81	3.841
616.14	3.863
616.47	3.843
616.80	3.824
617.13	3.805
617.46	3.830
617.78	3.847
618.11	3.832
618.44	3.848
618.77	3.837
619.10	3.822
619.43	3.838
619.76	3.826
620.09	3.873
620.41	3.876
620.74	3.935
621.07	3.979
621.40	4.037
621.73	4.070
622.06	4.109
622.38	4.151
622.71	4.200
623.04	4.257
623.37	4.345
623.70	4.354
624.02	4.420
624.35	4.461
624.68	4.504
625.01	4.557
625.34	4.603
625.66	4.645
625.99	4.666
626.32	4.689
626.65	4.713
626.98	4.707
627.30	4.729
627.63	4.729
627.96	4.715
628.29	4.691
628.61	4.650
628.94	4.646
629.27	4.630
629.60	4.612
629.92	4.599
630.25	4.562
630.58	4.520
630.91	4.522
631.23	4.515
631.56	4.534
631.89	4.532
632.21	4.538
632.54	4.542
632.87	4.547
633.19	4.553
633.52	4.573
633.85	4.570
634.18	4.593
634.50	4.586
634.83	4.578
635.16	4.568
635.48	4.559
635.81	4.536
636.14	4.529
636.46	4.521
636.79	4.558
637.11	4.522
637.44	4.511
637.77	4.474
638.09	4.448
638.42	4.462
638.75	4.460
639.07	4.463
639.40	4.497
639.73	4.476
640.05	4.463
640.38	4.449
640.70	4.459
641.03	4.506
641.36	4.546
641.68	4.581
642.01	4.582
642.33	4.600
642.66	4.640
642.98	4.652
643.31	4.672
643.64	4.690
643.96	4.699
644.29	4.745
644.61	4.791
644.94	4.848
645.26	4.903
645.59	4.988
645.91	5.060
646.24	5.112
646.56	5.150
646.89	5.214
647.22	5.254
647.54	5.285
647.87	5.306
648.19	5.288
648.52	5.295
648.84	5.305
649.17	5.285
649.49	5.254
649.82	5.254
650.14	5.252
650.47	5.223
650.79	5.271
651.11	5.279
651.44	5.313
651.76	5.332
652.09	5.347
652.41	5.386
652.74	5.399
653.06	5.471
653.39	5.491
653.71	5.532
654.04	5.640
654.36	5.641
654.68	5.725
655.01	5.739
655.33	5.788
655.66	5.820
655.98	5.866
656.30	5.905
656.63	5.901
656.95	5.937
657.28	5.966
657.60	5.921
657.92	5.932
