OOIBase32 Version 2.0.0.6 Data File
++++++++++++++++++++++++++++++++++++
Date: 01-23-2012, 21:56:21
User: Valued Ocean Optics Customer
Spectrometer Serial Number: USB2E2917
Spectrometer Channel: Master
Integration Time (msec): 5
Spectra Averaged: 10
Boxcar Smoothing: 5
Correct for Electrical Dark: Enabled
Time Normalized: Disabled
Dual-beam Reference: Disabled
Reference Channel: Master
Temperature: Not acquired
Spectrometer Type: S2000
ADC Type: USB2000
Number of Pixels in File: 2048
Graph Title: 
>>>>>Begin Spectral Data<<<<<
180.30	0.000
180.67	0.000
181.03	121.059
181.40	-152.922
181.77	-7283.800
182.14	83.554
182.51	76.576
182.88	-6155.456
183.25	496.803
183.62	-108.870
183.99	55.244
184.36	161.996
184.73	56.676
185.10	-137.011
185.46	-48.312
185.83	26.197
186.20	58.202
186.57	6.234
186.94	3.779
187.31	21.033
187.68	-197.814
188.05	18.961
188.42	16.941
188.78	1.515
189.15	4.855
189.52	-2.293
189.89	-5.134
190.26	-36.806
190.63	-7.838
191.00	-24.238
191.37	-9.010
191.73	-2.804
192.10	-10.137
192.47	-6.762
192.84	1.875
193.21	-6.970
193.58	1.213
193.94	-4.236
194.31	-4.521
194.68	-3.624
195.05	-10.109
195.42	-30.723
195.79	-33.922
196.15	-27.728
196.52	-20.413
196.89	-45.908
197.26	-35.546
197.63	-54.769
198.00	-49.740
198.36	-40.805
198.73	-43.527
199.10	-22.109
199.47	-17.304
199.84	-20.846
200.20	-6.175
200.57	-35.524
200.94	-25.788
201.31	-36.408
201.68	-11.299
202.04	-20.058
202.41	-10.319
202.78	-21.312
203.15	-20.497
203.51	-37.996
203.88	-33.262
204.25	-42.116
204.62	-14.254
204.98	4.130
205.35	23.213
205.72	31.310
206.09	43.810
206.46	45.220
206.82	60.230
207.19	41.533
207.56	44.363
207.92	40.388
208.29	32.582
208.66	38.198
209.03	36.911
209.39	16.541
209.76	-0.334
210.13	-13.842
210.50	-11.665
210.86	-15.491
211.23	10.324
211.60	6.396
211.96	12.340
212.33	-0.895
212.70	-3.135
213.07	-17.365
213.43	-11.812
213.80	-7.689
214.17	-10.004
214.53	-8.412
214.90	-9.497
215.27	-22.335
215.63	-22.385
216.00	-28.270
216.37	-13.357
216.74	-34.061
217.10	-28.567
217.47	-32.761
217.84	-29.156
218.20	-15.577
218.57	-13.670
218.94	-11.458
219.30	-4.997
219.67	-5.713
220.04	-2.337
220.40	-1.938
220.77	-0.249
221.13	-2.353
221.50	-0.234
221.87	-6.516
222.23	-8.897
222.60	-9.589
222.97	-12.737
223.33	-26.719
223.70	-28.107
224.07	-19.156
224.43	-17.475
224.80	-8.566
225.16	-7.569
225.53	-6.642
225.90	-9.320
226.26	-9.459
226.63	-8.296
226.99	-8.022
227.36	-4.876
227.73	-2.727
228.09	-6.187
228.46	-4.993
228.82	-4.864
229.19	-3.892
229.56	-5.227
229.92	-2.927
230.29	-0.154
230.65	-0.489
231.02	1.626
231.38	0.141
231.75	-1.776
232.12	0.461
232.48	-0.793
232.85	-2.786
233.21	-1.672
233.58	0.552
233.94	1.575
234.31	-1.722
234.68	-4.403
235.04	-6.019
235.41	-4.285
235.77	-2.696
236.14	-2.555
236.50	-3.421
236.87	-2.353
237.23	-2.186
237.60	-1.799
237.96	-2.479
238.33	-0.526
238.69	0.623
239.06	0.583
239.42	1.135
239.79	1.104
240.15	1.778
240.52	2.036
240.88	2.165
241.25	2.375
241.61	2.491
241.98	3.403
242.34	2.993
242.71	3.634
243.07	4.184
243.44	3.823
243.80	3.703
244.17	3.812
244.53	3.857
244.90	3.622
245.26	3.358
245.63	3.127
245.99	2.914
246.36	2.974
246.72	2.260
247.09	2.006
247.45	2.008
247.81	1.652
248.18	1.026
248.54	1.280
248.91	1.384
249.27	1.826
249.64	1.661
250.00	1.213
250.36	1.401
250.73	1.694
251.09	1.776
251.46	1.522
251.82	2.278
252.19	3.040
252.55	2.797
252.91	2.576
253.28	1.759
253.64	2.144
254.01	2.749
254.37	2.797
254.73	3.535
255.10	3.572
255.46	3.794
255.83	3.224
256.19	2.883
256.55	2.629
256.92	2.486
257.28	2.576
257.65	2.831
258.01	2.843
258.37	2.576
258.74	2.469
259.10	2.309
259.46	2.409
259.83	2.662
260.19	2.624
260.55	2.749
260.92	3.007
261.28	2.923
261.64	2.573
262.01	2.426
262.37	2.600
262.73	2.111
263.10	2.200
263.46	2.220
263.82	1.881
264.19	1.668
264.55	1.753
264.91	1.719
265.28	1.885
265.64	1.774
266.00	1.418
266.37	1.291
266.73	1.639
267.09	1.667
267.46	1.712
267.82	1.866
268.18	2.178
268.54	2.004
268.91	2.147
269.27	2.062
269.63	2.153
270.00	2.483
270.36	2.486
270.72	2.293
271.08	2.077
271.45	1.942
271.81	1.948
272.17	1.762
272.53	1.590
272.90	1.336
273.26	1.347
273.62	1.305
273.98	1.140
274.35	1.047
274.71	1.328
275.07	1.493
275.43	1.701
275.80	1.860
276.16	2.222
276.52	2.371
276.88	2.455
277.25	2.461
277.61	2.646
277.97	2.628
278.33	2.361
278.69	2.099
279.06	2.407
279.42	1.961
279.78	1.803
280.14	1.726
280.50	1.876
280.87	1.981
281.23	2.216
281.59	2.157
281.95	2.212
282.31	2.538
282.68	2.632
283.04	2.519
283.40	2.768
283.76	2.566
284.12	2.593
284.48	2.589
284.85	2.415
285.21	2.276
285.57	2.275
285.93	2.413
286.29	2.421
286.65	2.381
287.02	2.452
287.38	2.494
287.74	2.841
288.10	2.840
288.46	2.810
288.82	2.824
289.18	2.801
289.54	2.737
289.91	2.810
290.27	2.898
290.63	3.057
290.99	2.932
291.35	3.038
291.71	3.405
292.07	3.411
292.43	3.812
292.79	4.359
293.16	4.671
293.52	4.842
293.88	5.068
294.24	5.317
294.60	5.369
294.96	5.700
295.32	5.921
295.68	5.816
296.04	6.159
296.40	6.230
296.76	6.370
297.12	6.602
297.49	6.920
297.85	7.144
298.21	7.378
298.57	7.764
298.93	8.038
299.29	8.313
299.65	8.590
300.01	8.831
300.37	9.063
300.73	9.533
301.09	9.737
301.45	10.062
301.81	10.279
302.17	10.504
302.53	10.769
302.89	10.881
303.25	10.992
303.61	11.380
303.97	11.443
304.33	11.720
304.69	11.710
305.05	11.929
305.41	12.080
305.77	12.387
306.13	12.603
306.49	12.846
306.85	13.089
307.21	13.268
307.57	13.336
307.93	13.594
308.29	13.691
308.65	13.642
309.01	13.641
309.37	13.824
309.73	13.699
310.09	13.680
310.45	13.698
310.81	13.674
311.17	13.595
311.53	13.607
311.89	13.701
312.25	13.753
312.61	13.843
312.96	13.942
313.32	13.937
313.68	13.954
314.04	14.079
314.40	14.132
314.76	14.219
315.12	14.425
315.48	14.453
315.84	14.274
316.20	14.371
316.56	14.515
316.92	14.511
317.27	14.321
317.63	14.346
317.99	14.233
318.35	14.049
318.71	14.188
319.07	14.111
319.43	14.125
319.79	14.162
320.15	14.065
320.50	13.764
320.86	13.876
321.22	14.061
321.58	14.100
321.94	14.106
322.30	14.200
322.66	14.140
323.01	14.067
323.37	14.032
323.73	14.007
324.09	13.955
324.45	14.237
324.81	14.080
325.17	14.038
325.52	14.074
325.88	14.080
326.24	14.044
326.60	14.194
326.96	14.275
327.31	14.220
327.67	14.246
328.03	14.178
328.39	13.970
328.75	14.065
329.11	14.087
329.46	14.020
329.82	13.988
330.18	13.944
330.54	13.748
330.90	13.714
331.25	13.821
331.61	13.767
331.97	13.790
332.33	13.806
332.68	13.679
333.04	13.521
333.40	13.516
333.76	13.463
334.11	13.366
334.47	13.318
334.83	13.192
335.19	13.048
335.54	13.104
335.90	13.125
336.26	13.168
336.62	13.258
336.97	13.151
337.33	13.087
337.69	13.132
338.05	13.133
338.40	13.027
338.76	13.053
339.12	13.060
339.48	13.005
339.83	12.986
340.19	12.990
340.55	12.887
340.90	12.950
341.26	12.915
341.62	12.854
341.97	12.933
342.33	12.949
342.69	12.874
343.04	12.854
343.40	12.811
343.76	12.839
344.12	12.861
344.47	12.849
344.83	12.813
345.19	12.789
345.54	12.724
345.90	12.760
346.26	12.774
346.61	12.830
346.97	12.797
347.32	12.812
347.68	12.661
348.04	12.526
348.39	12.544
348.75	12.622
349.11	12.607
349.46	12.569
349.82	12.439
350.18	12.401
350.53	12.362
350.89	12.355
351.24	12.301
351.60	12.354
351.96	12.368
352.31	12.403
352.67	12.336
353.02	12.390
353.38	12.422
353.74	12.365
354.09	12.322
354.45	12.337
354.80	12.287
355.16	12.238
355.52	12.168
355.87	12.086
356.23	11.975
356.58	12.029
356.94	11.957
357.29	11.937
357.65	11.965
358.00	11.961
358.36	11.917
358.72	11.956
359.07	11.973
359.43	11.979
359.78	12.023
360.14	11.993
360.49	11.919
360.85	11.929
361.20	11.965
361.56	11.962
361.91	11.935
362.27	11.904
362.62	11.871
362.98	11.835
363.33	11.836
363.69	11.716
364.04	11.703
364.40	11.689
364.75	11.618
365.11	11.619
365.46	11.569
365.82	11.527
366.17	11.498
366.53	11.507
366.88	11.477
367.24	11.426
367.59	11.509
367.95	11.528
368.30	11.482
368.66	11.448
369.01	11.412
369.37	11.403
369.72	11.418
370.08	11.433
370.43	11.372
370.78	11.349
371.14	11.335
371.49	11.305
371.85	11.230
372.20	11.269
372.56	11.323
372.91	11.185
373.26	11.157
373.62	11.124
373.97	11.130
374.33	11.142
374.68	11.115
375.03	11.112
375.39	11.031
375.74	11.022
376.10	10.923
376.45	10.893
376.80	10.950
377.16	10.949
377.51	10.975
377.87	10.910
378.22	10.886
378.57	10.905
378.93	10.874
379.28	10.914
379.63	10.909
379.99	10.959
380.34	10.955
380.70	10.964
381.05	10.960
381.40	10.865
381.76	10.887
382.11	10.836
382.46	10.754
382.82	10.729
383.17	10.703
383.52	10.700
383.88	10.598
384.23	10.559
384.58	10.498
384.94	10.493
385.29	10.509
385.64	10.505
385.99	10.502
386.35	10.544
386.70	10.540
387.05	10.472
387.41	10.458
387.76	10.478
388.11	10.413
388.47	10.442
388.82	10.362
389.17	10.313
389.52	10.257
389.88	10.231
390.23	10.191
390.58	10.152
390.93	10.161
391.29	10.146
391.64	10.126
391.99	10.124
392.34	10.080
392.70	10.081
393.05	10.060
393.40	10.015
393.75	10.004
394.11	10.002
394.46	9.973
394.81	9.916
395.16	9.850
395.52	9.827
395.87	9.787
396.22	9.715
396.57	9.682
396.92	9.655
397.28	9.663
397.63	9.587
397.98	9.561
398.33	9.576
398.68	9.598
399.04	9.576
399.39	9.580
399.74	9.559
400.09	9.546
400.44	9.525
400.80	9.478
401.15	9.443
401.50	9.462
401.85	9.422
402.20	9.384
402.55	9.365
402.90	9.339
403.26	9.292
403.61	9.268
403.96	9.275
404.31	9.262
404.66	9.280
405.01	9.261
405.36	9.248
405.72	9.219
406.07	9.192
406.42	9.176
406.77	9.179
407.12	9.143
407.47	9.156
407.82	9.134
408.17	9.102
408.53	9.083
408.88	9.086
409.23	9.051
409.58	9.017
409.93	8.980
410.28	8.968
410.63	8.932
410.98	8.906
411.33	8.874
411.68	8.837
412.03	8.798
412.38	8.764
412.73	8.726
413.09	8.704
413.44	8.693
413.79	8.693
414.14	8.641
414.49	8.615
414.84	8.583
415.19	8.568
415.54	8.548
415.89	8.562
416.24	8.530
416.59	8.510
416.94	8.511
417.29	8.502
417.64	8.459
417.99	8.452
418.34	8.453
418.69	8.452
419.04	8.435
419.39	8.429
419.74	8.400
420.09	8.405
420.44	8.398
420.79	8.371
421.14	8.350
421.49	8.361
421.84	8.364
422.19	8.344
422.54	8.357
422.89	8.349
423.24	8.346
423.59	8.347
423.94	8.354
424.29	8.335
424.64	8.337
424.99	8.358
425.34	8.366
425.68	8.356
426.03	8.374
426.38	8.348
426.73	8.355
427.08	8.340
427.43	8.364
427.78	8.360
428.13	8.382
428.48	8.393
428.83	8.382
429.18	8.359
429.53	8.366
429.87	8.370
430.22	8.362
430.57	8.363
430.92	8.351
431.27	8.336
431.62	8.317
431.97	8.311
432.32	8.294
432.67	8.274
433.01	8.272
433.36	8.268
433.71	8.248
434.06	8.248
434.41	8.255
434.76	8.276
435.11	8.251
435.45	8.237
435.80	8.224
436.15	8.212
436.50	8.221
436.85	8.213
437.20	8.200
437.54	8.198
437.89	8.181
438.24	8.165
438.59	8.141
438.94	8.144
439.29	8.144
439.63	8.129
439.98	8.136
440.33	8.111
440.68	8.108
441.03	8.088
441.37	8.058
441.72	8.057
442.07	8.037
442.42	8.021
442.76	8.006
443.11	8.004
443.46	8.003
443.81	7.984
444.16	7.982
444.50	7.958
444.85	7.950
445.20	7.950
445.55	7.933
445.89	7.911
446.24	7.891
446.59	7.887
446.94	7.874
447.28	7.854
447.63	7.850
447.98	7.861
448.32	7.892
448.67	7.890
449.02	7.881
449.37	7.886
449.71	7.890
450.06	7.900
450.41	7.895
450.75	7.890
451.10	7.891
451.45	7.877
451.79	7.835
452.14	7.797
452.49	7.776
452.84	7.769
453.18	7.758
453.53	7.747
453.88	7.748
454.22	7.743
454.57	7.730
454.92	7.716
455.26	7.735
455.61	7.741
455.95	7.743
456.30	7.773
456.65	7.764
456.99	7.756
457.34	7.763
457.69	7.757
458.03	7.752
458.38	7.747
458.73	7.743
459.07	7.721
459.42	7.705
459.76	7.690
460.11	7.654
460.46	7.640
460.80	7.644
461.15	7.646
461.49	7.640
461.84	7.633
462.19	7.640
462.53	7.649
462.88	7.656
463.22	7.677
463.57	7.702
463.91	7.709
464.26	7.725
464.61	7.703
464.95	7.703
465.30	7.700
465.64	7.690
465.99	7.675
466.33	7.665
466.68	7.649
467.02	7.640
467.37	7.617
467.71	7.616
468.06	7.600
468.41	7.598
468.75	7.557
469.10	7.528
469.44	7.509
469.79	7.494
470.13	7.487
470.48	7.468
470.82	7.449
471.17	7.435
471.51	7.399
471.86	7.385
472.20	7.366
472.55	7.380
472.89	7.372
473.23	7.377
473.58	7.366
473.92	7.362
474.27	7.340
474.61	7.327
474.96	7.310
475.30	7.294
475.65	7.296
475.99	7.286
476.34	7.267
476.68	7.275
477.02	7.256
477.37	7.244
477.71	7.229
478.06	7.241
478.40	7.254
478.75	7.313
479.09	7.383
479.43	7.448
479.78	7.535
480.12	7.620
480.47	7.726
480.81	7.832
481.15	7.957
481.50	8.079
481.84	8.221
482.19	8.366
482.53	8.475
482.87	8.521
483.22	8.490
483.56	8.389
483.90	8.245
484.25	8.069
484.59	7.913
484.94	7.770
485.28	7.639
485.62	7.475
485.97	7.291
486.31	7.126
486.65	7.024
487.00	7.001
487.34	7.032
487.68	7.097
488.03	7.173
488.37	7.231
488.71	7.238
489.06	7.218
489.40	7.202
489.74	7.194
490.09	7.180
490.43	7.149
490.77	7.113
491.11	7.081
491.46	7.056
491.80	7.028
492.14	6.986
492.49	6.950
492.83	6.926
493.17	6.885
493.51	6.849
493.86	6.824
494.20	6.814
494.54	6.796
494.88	6.794
495.23	6.782
495.57	6.766
495.91	6.775
496.25	6.770
496.60	6.742
496.94	6.738
497.28	6.724
497.62	6.702
497.97	6.685
498.31	6.680
498.65	6.662
498.99	6.656
499.33	6.659
499.68	6.643
500.02	6.647
500.36	6.653
500.70	6.630
501.04	6.624
501.39	6.601
501.73	6.614
502.07	6.610
502.41	6.615
502.75	6.589
503.09	6.575
503.44	6.568
503.78	6.550
504.12	6.546
504.46	6.553
504.80	6.555
505.14	6.570
505.49	6.548
505.83	6.543
506.17	6.535
506.51	6.547
506.85	6.533
507.19	6.520
507.53	6.515
507.87	6.505
508.22	6.498
508.56	6.478
508.90	6.459
509.24	6.456
509.58	6.453
509.92	6.451
510.26	6.434
510.60	6.451
510.94	6.439
511.28	6.433
511.63	6.431
511.97	6.411
512.31	6.407
512.65	6.405
512.99	6.398
513.33	6.385
513.67	6.388
514.01	6.388
514.35	6.379
514.69	6.395
515.03	6.407
515.37	6.401
515.71	6.421
516.05	6.420
516.39	6.432
516.73	6.442
517.07	6.439
517.41	6.425
517.75	6.420
518.09	6.400
518.43	6.375
518.77	6.355
519.11	6.351
519.45	6.329
519.79	6.307
520.13	6.270
520.47	6.243
520.81	6.231
521.15	6.225
521.49	6.213
521.83	6.213
522.17	6.232
522.51	6.239
522.85	6.248
523.19	6.281
523.53	6.347
523.87	6.407
524.21	6.449
524.55	6.488
524.89	6.522
525.23	6.567
525.57	6.601
525.91	6.632
526.25	6.664
526.58	6.684
526.92	6.691
527.26	6.683
527.60	6.666
527.94	6.649
528.28	6.624
528.62	6.598
528.96	6.563
529.30	6.528
529.64	6.480
529.97	6.428
530.31	6.384
530.65	6.345
530.99	6.308
531.33	6.281
531.67	6.264
532.01	6.256
532.35	6.247
532.68	6.230
533.02	6.203
533.36	6.186
533.70	6.174
534.04	6.154
534.38	6.135
534.71	6.117
535.05	6.100
535.39	6.068
535.73	6.051
536.07	6.038
536.41	6.047
536.74	6.068
537.08	6.086
537.42	6.098
537.76	6.120
538.10	6.134
538.43	6.157
538.77	6.174
539.11	6.192
539.45	6.198
539.79	6.202
540.12	6.191
540.46	6.180
540.80	6.159
541.14	6.124
541.47	6.103
541.81	6.078
542.15	6.041
542.49	6.006
542.82	5.980
543.16	5.951
543.50	5.911
543.84	5.873
544.17	5.848
544.51	5.830
544.85	5.822
545.18	5.800
545.52	5.792
545.86	5.763
546.20	5.739
546.53	5.704
546.87	5.665
547.21	5.620
547.54	5.597
547.88	5.577
548.22	5.559
548.55	5.545
548.89	5.528
549.23	5.500
549.56	5.514
549.90	5.528
550.24	5.517
550.57	5.540
550.91	5.551
551.25	5.553
551.58	5.539
551.92	5.530
552.26	5.520
552.59	5.503
552.93	5.487
553.27	5.485
553.60	5.459
553.94	5.458
554.27	5.425
554.61	5.442
554.95	5.447
555.28	5.452
555.62	5.453
555.95	5.466
556.29	5.483
556.63	5.484
556.96	5.449
557.30	5.445
557.63	5.438
557.97	5.422
558.31	5.409
558.64	5.419
558.98	5.419
559.31	5.419
559.65	5.425
559.98	5.402
560.32	5.410
560.65	5.411
560.99	5.416
561.33	5.421
561.66	5.449
562.00	5.452
562.33	5.444
562.67	5.423
563.00	5.422
563.34	5.407
563.67	5.405
564.01	5.383
564.34	5.379
564.68	5.390
565.01	5.384
565.35	5.358
565.68	5.340
566.02	5.316
566.35	5.326
566.69	5.322
567.02	5.326
567.36	5.337
567.69	5.349
568.03	5.363
568.36	5.331
568.69	5.330
569.03	5.340
569.36	5.336
569.70	5.335
570.03	5.329
570.37	5.313
570.70	5.316
571.04	5.295
571.37	5.296
571.70	5.276
572.04	5.289
572.37	5.284
572.71	5.281
573.04	5.287
573.37	5.301
573.71	5.298
574.04	5.312
574.38	5.292
574.71	5.291
575.04	5.278
575.38	5.262
575.71	5.240
576.05	5.243
576.38	5.225
576.71	5.210
577.05	5.172
577.38	5.159
577.71	5.135
578.05	5.101
578.38	5.089
578.71	5.077
579.05	5.067
579.38	5.072
579.71	5.029
580.05	5.010
580.38	5.005
580.71	5.002
581.05	4.983
581.38	4.980
581.71	4.982
582.05	4.969
582.38	4.976
582.71	4.999
583.04	4.979
583.38	5.001
583.71	5.013
584.04	5.014
584.38	5.020
584.71	5.016
585.04	5.003
585.37	5.033
585.71	5.048
586.04	5.053
586.37	5.048
586.70	5.062
587.04	5.042
587.37	5.035
587.70	5.047
588.03	5.059
588.37	5.055
588.70	5.045
589.03	5.029
589.36	5.002
589.69	4.966
590.03	4.948
590.36	4.920
590.69	4.945
591.02	4.945
591.35	4.889
591.69	4.869
592.02	4.878
592.35	4.897
592.68	4.887
593.01	4.905
593.35	4.914
593.68	4.920
594.01	4.923
594.34	4.902
594.67	4.876
595.00	4.893
595.34	4.869
595.67	4.856
596.00	4.830
596.33	4.810
596.66	4.764
596.99	4.737
597.32	4.710
597.65	4.697
597.99	4.667
598.32	4.668
598.65	4.657
598.98	4.652
599.31	4.645
599.64	4.659
599.97	4.667
600.30	4.679
600.63	4.691
600.96	4.697
601.30	4.709
601.63	4.719
601.96	4.713
602.29	4.708
602.62	4.725
602.95	4.721
603.28	4.689
603.61	4.673
603.94	4.683
604.27	4.655
604.60	4.640
604.93	4.610
605.26	4.602
605.59	4.578
605.92	4.565
606.25	4.539
606.58	4.541
606.91	4.569
607.24	4.574
607.57	4.547
607.90	4.566
608.23	4.550
608.56	4.548
608.89	4.529
609.22	4.540
609.55	4.512
609.88	4.483
610.21	4.444
610.54	4.391
610.87	4.351
611.20	4.321
611.53	4.279
611.86	4.261
612.19	4.232
612.52	4.219
612.85	4.201
613.18	4.228
613.51	4.211
613.84	4.213
614.17	4.219
614.49	4.217
614.82	4.215
615.15	4.234
615.48	4.220
615.81	4.206
616.14	4.199
616.47	4.201
616.80	4.174
617.13	4.171
617.46	4.136
617.78	4.127
618.11	4.120
618.44	4.143
618.77	4.110
619.10	4.106
619.43	4.115
619.76	4.112
620.09	4.073
620.41	4.041
620.74	4.067
621.07	4.088
621.40	4.051
621.73	4.055
622.06	4.018
622.38	4.018
622.71	4.003
623.04	3.996
623.37	4.004
623.70	4.019
624.02	4.030
624.35	4.032
624.68	4.051
625.01	4.103
625.34	4.097
625.66	4.115
625.99	4.130
626.32	4.150
626.65	4.149
626.98	4.143
627.30	4.151
627.63	4.152
627.96	4.125
628.29	4.082
628.61	4.032
628.94	4.014
629.27	4.001
629.60	3.993
629.92	3.958
630.25	3.980
630.58	3.955
630.91	3.939
631.23	3.932
631.56	3.921
631.89	3.923
632.21	3.917
632.54	3.914
632.87	3.906
633.19	3.868
633.52	3.846
633.85	3.791
634.18	3.736
634.50	3.703
634.83	3.676
635.16	3.675
635.48	3.664
635.81	3.632
636.14	3.607
636.46	3.553
636.79	3.567
637.11	3.604
637.44	3.620
637.77	3.642
638.09	3.619
638.42	3.578
638.75	3.554
639.07	3.524
639.40	3.510
639.73	3.506
640.05	3.580
640.38	3.549
640.70	3.525
641.03	3.503
641.36	3.534
641.68	3.537
642.01	3.548
642.33	3.550
642.66	3.562
642.98	3.585
643.31	3.556
643.64	3.502
643.96	3.499
644.29	3.476
644.61	3.470
644.94	3.449
645.26	3.485
645.59	3.530
645.91	3.531
646.24	3.542
646.56	3.556
646.89	3.561
647.22	3.571
647.54	3.558
647.87	3.542
648.19	3.538
648.52	3.562
648.84	3.546
649.17	3.540
649.49	3.518
649.82	3.488
650.14	3.506
650.47	3.518
650.79	3.464
651.11	3.485
651.44	3.499
651.76	3.517
652.09	3.485
652.41	3.483
