OOIBase32 Version 2.0.0.6 Data File
++++++++++++++++++++++++++++++++++++
Date: 01-22-2012, 12:51:49
User: Valued Ocean Optics Customer
Spectrometer Serial Number: USB2E2917
Spectrometer Channel: Master
Integration Time (msec): 5
Spectra Averaged: 10
Boxcar Smoothing: 5
Correct for Electrical Dark: Enabled
Time Normalized: Disabled
Dual-beam Reference: Disabled
Reference Channel: Master
Temperature: Not acquired
Spectrometer Type: S2000
ADC Type: USB2000
Number of Pixels in File: 2048
Graph Title: 
>>>>>Begin Spectral Data<<<<<
180.30	0.000
180.67	0.000
181.03	-3.420
181.40	-10.894
181.77	4.833
182.14	108.488
182.51	18.549
182.88	80.026
183.25	-281.903
183.62	137.043
183.99	-122.849
184.36	19.330
184.73	72.191
185.10	134.334
185.46	-16.485
185.83	150.062
186.20	38.400
186.57	-93.048
186.94	-3482.688
187.31	95.585
187.68	231.408
188.05	-71.900
188.42	-77.566
188.78	-110.464
189.15	360.784
189.52	194.509
189.89	138.782
190.26	94.857
190.63	61.610
191.00	34.882
191.37	24.059
191.73	23.868
192.10	25.184
192.47	22.630
192.84	27.007
193.21	35.468
193.58	24.201
193.94	26.527
194.31	33.554
194.68	46.235
195.05	52.101
195.42	44.507
195.79	48.571
196.15	50.403
196.52	51.316
196.89	33.298
197.26	31.438
197.63	36.836
198.00	24.749
198.36	8.789
198.73	7.764
199.10	5.032
199.47	29.963
199.84	4.228
200.20	-7.078
200.57	-8.154
200.94	9.937
201.31	-10.421
201.68	16.759
202.04	15.832
202.41	12.283
202.78	12.644
203.15	10.460
203.51	-0.902
203.88	9.046
204.25	8.365
204.62	8.579
204.98	11.876
205.35	22.127
205.72	-0.230
206.09	2.214
206.46	21.650
206.82	22.338
207.19	25.901
207.56	25.251
207.92	28.600
208.29	28.763
208.66	30.634
209.03	31.098
209.39	26.838
209.76	30.453
210.13	16.154
210.50	4.238
210.86	-0.831
211.23	-4.216
211.60	-9.511
211.96	-13.069
212.33	-13.560
212.70	-14.111
213.07	-31.537
213.43	-18.662
213.80	-20.948
214.17	-11.351
214.53	-4.159
214.90	-9.547
215.27	-9.185
215.63	-1.750
216.00	-13.717
216.37	-26.463
216.74	-27.150
217.10	-7.740
217.47	-10.999
217.84	-2.061
218.20	2.847
218.57	-0.972
218.94	17.743
219.30	17.845
219.67	9.687
220.04	24.553
220.40	27.126
220.77	33.841
221.13	25.250
221.50	21.093
221.87	24.574
222.23	28.746
222.60	27.204
222.97	20.926
223.33	22.117
223.70	25.477
224.07	22.639
224.43	25.358
224.80	23.271
225.16	22.322
225.53	17.473
225.90	14.482
226.26	11.673
226.63	11.705
226.99	10.260
227.36	11.637
227.73	10.041
228.09	8.592
228.46	9.131
228.82	8.890
229.19	10.416
229.56	13.379
229.92	12.414
230.29	12.903
230.65	13.372
231.02	13.450
231.38	11.986
231.75	12.381
232.12	14.375
232.48	14.965
232.85	14.449
233.21	13.412
233.58	11.043
233.94	12.266
234.31	11.701
234.68	11.638
235.04	11.904
235.41	11.051
235.77	8.966
236.14	7.705
236.50	4.617
236.87	4.823
237.23	4.208
237.60	5.209
237.96	4.784
238.33	5.019
238.69	4.287
239.06	4.805
239.42	5.183
239.79	6.286
240.15	7.005
240.52	7.130
240.88	6.883
241.25	6.821
241.61	6.789
241.98	7.358
242.34	7.629
242.71	8.158
243.07	7.917
243.44	8.296
243.80	8.172
244.17	8.021
244.53	8.341
244.90	8.081
245.26	8.340
245.63	8.344
245.99	8.105
246.36	8.026
246.72	8.152
247.09	8.468
247.45	8.762
247.81	8.749
248.18	8.397
248.54	8.452
248.91	8.514
249.27	8.684
249.64	8.886
250.00	8.568
250.36	8.521
250.73	8.368
251.09	7.873
251.46	7.623
251.82	7.261
252.19	7.581
252.55	7.173
252.91	7.592
253.28	7.201
253.64	7.076
254.01	7.443
254.37	7.215
254.73	7.024
255.10	7.575
255.46	6.982
255.83	7.308
256.19	7.274
256.55	7.305
256.92	7.354
257.28	7.403
257.65	7.427
258.01	7.673
258.37	8.055
258.74	8.070
259.10	7.775
259.46	7.809
259.83	7.898
260.19	7.991
260.55	7.958
260.92	7.823
261.28	8.041
261.64	7.999
262.01	7.704
262.37	7.390
262.73	7.460
263.10	7.611
263.46	7.469
263.82	7.345
264.19	6.920
264.55	7.019
264.91	6.910
265.28	6.689
265.64	6.958
266.00	7.151
266.37	7.024
266.73	7.286
267.09	7.389
267.46	7.365
267.82	7.196
268.18	7.702
268.54	7.628
268.91	7.947
269.27	7.994
269.63	7.902
270.00	7.597
270.36	7.540
270.72	7.149
271.08	7.003
271.45	7.430
271.81	7.525
272.17	7.220
272.53	7.203
272.90	6.850
273.26	6.604
273.62	6.666
273.98	6.806
274.35	6.889
274.71	7.176
275.07	7.387
275.43	7.093
275.80	7.180
276.16	7.260
276.52	7.319
276.88	7.888
277.25	8.034
277.61	7.861
277.97	7.677
278.33	7.595
278.69	7.356
279.06	7.170
279.42	7.402
279.78	7.346
280.14	7.352
280.50	7.183
280.87	6.835
281.23	6.961
281.59	6.881
281.95	6.937
282.31	6.789
282.68	6.751
283.04	6.847
283.40	6.779
283.76	7.009
284.12	7.018
284.48	7.146
284.85	7.206
285.21	7.054
285.57	6.854
285.93	6.916
286.29	7.044
286.65	7.042
287.02	7.059
287.38	6.890
287.74	6.875
288.10	6.957
288.46	6.995
288.82	7.190
289.18	7.169
289.54	7.525
289.91	7.608
290.27	7.751
290.63	7.848
290.99	7.620
291.35	7.944
291.71	7.694
292.07	7.692
292.43	7.761
292.79	7.734
293.16	7.940
293.52	8.187
293.88	8.296
294.24	8.331
294.60	8.513
294.96	8.830
295.32	8.715
295.68	8.957
296.04	9.150
296.40	9.251
296.76	9.463
297.12	9.622
297.49	9.609
297.85	9.770
298.21	9.984
298.57	10.097
298.93	10.183
299.29	10.354
299.65	10.468
300.01	10.614
300.37	10.868
300.73	11.073
301.09	11.197
301.45	11.461
301.81	11.398
302.17	11.595
302.53	11.876
302.89	12.068
303.25	12.335
303.61	12.523
303.97	12.604
304.33	12.592
304.69	12.543
305.05	12.692
305.41	12.701
305.77	13.000
306.13	12.878
306.49	12.596
306.85	12.566
307.21	12.484
307.57	12.452
307.93	12.606
308.29	12.675
308.65	12.779
309.01	12.724
309.37	12.650
309.73	12.578
310.09	12.663
310.45	12.683
310.81	12.723
311.17	12.745
311.53	12.853
311.89	12.796
312.25	12.864
312.61	12.625
312.96	12.595
313.32	12.598
313.68	12.741
314.04	12.581
314.40	12.810
314.76	12.596
315.12	12.518
315.48	12.530
315.84	12.528
316.20	12.510
316.56	12.531
316.92	12.562
317.27	12.559
317.63	12.353
317.99	12.390
318.35	12.295
318.71	12.312
319.07	12.239
319.43	12.146
319.79	12.047
320.15	11.938
320.50	12.061
320.86	11.909
321.22	11.786
321.58	11.829
321.94	11.840
322.30	11.736
322.66	11.727
323.01	11.746
323.37	11.550
323.73	11.486
324.09	11.365
324.45	11.109
324.81	11.022
325.17	10.915
325.52	10.721
325.88	10.621
326.24	10.514
326.60	10.506
326.96	10.407
327.31	10.289
327.67	10.158
328.03	10.072
328.39	10.061
328.75	10.022
329.11	10.049
329.46	10.076
329.82	9.998
330.18	9.904
330.54	9.789
330.90	9.752
331.25	9.782
331.61	9.633
331.97	9.562
332.33	9.576
332.68	9.491
333.04	9.592
333.40	9.543
333.76	9.508
334.11	9.509
334.47	9.547
334.83	9.464
335.19	9.511
335.54	9.484
335.90	9.564
336.26	9.443
336.62	9.444
336.97	9.219
337.33	9.136
337.69	9.080
338.05	9.109
338.40	8.991
338.76	9.036
339.12	8.960
339.48	9.041
339.83	9.071
340.19	9.118
340.55	9.125
340.90	9.258
341.26	9.355
341.62	9.422
341.97	9.454
342.33	9.438
342.69	9.465
343.04	9.367
343.40	9.267
343.76	9.144
344.12	9.090
344.47	8.988
344.83	8.876
345.19	8.708
345.54	8.548
345.90	8.440
346.26	8.438
346.61	8.269
346.97	8.187
347.32	8.189
347.68	8.110
348.04	8.035
348.39	8.042
348.75	7.955
349.11	7.966
349.46	7.954
349.82	7.884
350.18	7.817
350.53	7.864
350.89	7.851
351.24	7.749
351.60	7.744
351.96	7.760
352.31	7.756
352.67	7.703
353.02	7.681
353.38	7.660
353.74	7.759
354.09	7.812
354.45	7.763
354.80	7.749
355.16	7.815
355.52	7.768
355.87	7.742
356.23	7.797
356.58	7.858
356.94	7.807
357.29	7.803
357.65	7.768
358.00	7.706
358.36	7.722
358.72	7.726
359.07	7.714
359.43	7.669
359.78	7.633
360.14	7.560
360.49	7.494
360.85	7.465
361.20	7.431
361.56	7.397
361.91	7.418
362.27	7.293
362.62	7.279
362.98	7.174
363.33	7.043
363.69	6.917
364.04	6.856
364.40	6.842
364.75	6.787
365.11	6.766
365.46	6.684
365.82	6.595
366.17	6.678
366.53	6.647
366.88	6.644
367.24	6.743
367.59	6.837
367.95	6.871
368.30	6.862
368.66	6.928
369.01	6.917
369.37	6.896
369.72	6.894
370.08	6.875
370.43	6.873
370.78	6.924
371.14	6.925
371.49	6.925
371.85	6.932
372.20	6.940
372.56	6.891
372.91	6.835
373.26	6.824
373.62	6.763
373.97	6.681
374.33	6.656
374.68	6.558
375.03	6.494
375.39	6.453
375.74	6.381
376.10	6.324
376.45	6.276
376.80	6.281
377.16	6.335
377.51	6.393
377.87	6.422
378.22	6.412
378.57	6.476
378.93	6.541
379.28	6.558
379.63	6.600
379.99	6.625
380.34	6.706
380.70	6.798
381.05	6.770
381.40	6.753
381.76	6.775
382.11	6.808
382.46	6.745
382.82	6.718
383.17	6.667
383.52	6.606
383.88	6.591
384.23	6.490
384.58	6.410
384.94	6.396
385.29	6.372
385.64	6.302
385.99	6.263
386.35	6.253
386.70	6.206
387.05	6.212
387.41	6.165
387.76	6.081
388.11	6.104
388.47	6.061
388.82	6.046
389.17	6.056
389.52	6.056
389.88	6.052
390.23	6.081
390.58	6.115
390.93	6.140
391.29	6.235
391.64	6.304
391.99	6.313
392.34	6.291
392.70	6.249
393.05	6.189
393.40	6.187
393.75	6.124
394.11	6.037
394.46	5.949
394.81	5.871
395.16	5.708
395.52	5.575
395.87	5.448
396.22	5.356
396.57	5.269
396.92	5.155
397.28	5.037
397.63	4.938
397.98	4.829
398.33	4.731
398.68	4.598
399.04	4.512
399.39	4.475
399.74	4.450
400.09	4.471
400.44	4.414
400.80	4.435
401.15	4.448
401.50	4.437
401.85	4.481
402.20	4.490
402.55	4.493
402.90	4.531
403.26	4.542
403.61	4.494
403.96	4.422
404.31	4.375
404.66	4.313
405.01	4.262
405.36	4.240
405.72	4.190
406.07	4.135
406.42	4.095
406.77	4.042
407.12	3.970
407.47	3.958
407.82	3.940
408.17	3.966
408.53	3.940
408.88	3.894
409.23	3.828
409.58	3.796
409.93	3.754
410.28	3.764
410.63	3.739
410.98	3.710
411.33	3.675
411.68	3.679
412.03	3.679
412.38	3.735
412.73	3.765
413.09	3.862
413.44	3.958
413.79	4.072
414.14	4.121
414.49	4.253
414.84	4.387
415.19	4.517
415.54	4.650
415.89	4.772
416.24	4.865
416.59	4.985
416.94	5.060
417.29	5.130
417.64	5.197
417.99	5.278
418.34	5.314
418.69	5.347
419.04	5.396
419.39	5.405
419.74	5.442
420.09	5.461
420.44	5.466
420.79	5.480
421.14	5.467
421.49	5.460
421.84	5.458
422.19	5.431
422.54	5.412
422.89	5.384
423.24	5.333
423.59	5.255
423.94	5.181
424.29	5.094
424.64	4.995
424.99	4.914
425.34	4.830
425.68	4.744
426.03	4.678
426.38	4.600
426.73	4.521
427.08	4.475
427.43	4.444
427.78	4.453
428.13	4.487
428.48	4.529
428.83	4.559
429.18	4.596
429.53	4.599
429.87	4.584
430.22	4.608
430.57	4.608
430.92	4.621
431.27	4.623
431.62	4.600
431.97	4.565
432.32	4.536
432.67	4.495
433.01	4.436
433.36	4.388
433.71	4.350
434.06	4.294
434.41	4.280
434.76	4.278
435.11	4.271
435.45	4.279
435.80	4.317
436.15	4.345
436.50	4.401
436.85	4.435
437.20	4.478
437.54	4.529
437.89	4.547
438.24	4.556
438.59	4.555
438.94	4.529
439.29	4.510
439.63	4.459
439.98	4.427
440.33	4.371
440.68	4.358
441.03	4.362
441.37	4.360
441.72	4.396
442.07	4.438
442.42	4.462
442.76	4.524
443.11	4.585
443.46	4.657
443.81	4.713
444.16	4.748
444.50	4.768
444.85	4.756
445.20	4.736
445.55	4.683
445.89	4.615
446.24	4.520
446.59	4.419
446.94	4.285
447.28	4.143
447.63	3.995
447.98	3.872
448.32	3.772
448.67	3.676
449.02	3.587
449.37	3.515
449.71	3.464
450.06	3.490
450.41	3.492
450.75	3.539
451.10	3.557
451.45	3.552
451.79	3.556
452.14	3.510
452.49	3.480
452.84	3.451
453.18	3.455
453.53	3.461
453.88	3.442
454.22	3.459
454.57	3.496
454.92	3.548
455.26	3.639
455.61	3.729
455.95	3.832
456.30	3.921
456.65	4.030
456.99	4.100
457.34	4.163
457.69	4.210
458.03	4.235
458.38	4.223
458.73	4.184
459.07	4.140
459.42	4.066
459.76	3.974
460.11	3.872
460.46	3.749
460.80	3.611
461.15	3.473
461.49	3.369
461.84	3.276
462.19	3.169
462.53	3.120
462.88	3.072
463.22	3.078
463.57	3.090
463.91	3.123
464.26	3.143
464.61	3.175
464.95	3.197
465.30	3.207
465.64	3.201
465.99	3.209
466.33	3.190
466.68	3.150
467.02	3.094
467.37	3.053
467.71	2.999
468.06	2.952
468.41	2.903
468.75	2.856
469.10	2.798
469.44	2.750
469.79	2.689
470.13	2.650
470.48	2.591
470.82	2.525
471.17	2.478
471.51	2.428
471.86	2.401
472.20	2.372
472.55	2.330
472.89	2.308
473.23	2.278
473.58	2.275
473.92	2.266
474.27	2.293
474.61	2.327
474.96	2.323
475.30	2.337
475.65	2.322
475.99	2.320
476.34	2.340
476.68	2.334
477.02	2.361
477.37	2.408
477.71	2.467
478.06	2.576
478.40	2.767
478.75	3.088
479.09	3.425
479.43	3.767
479.78	4.114
480.12	4.432
480.47	4.748
480.81	5.041
481.15	5.297
481.50	5.557
481.84	5.822
482.19	6.072
482.53	6.262
482.87	6.361
483.22	6.374
483.56	6.293
483.90	6.166
484.25	5.995
484.59	5.799
484.94	5.587
485.28	5.355
485.62	5.104
485.97	4.851
486.31	4.619
486.65	4.449
487.00	4.326
487.34	4.256
487.68	4.197
488.03	4.153
488.37	4.113
488.71	4.094
489.06	4.076
489.40	4.030
489.74	3.967
490.09	3.888
490.43	3.793
490.77	3.679
491.11	3.537
491.46	3.397
491.80	3.251
492.14	3.099
492.49	2.932
492.83	2.756
493.17	2.597
493.51	2.447
493.86	2.280
494.20	2.155
494.54	2.094
494.88	2.097
495.23	2.107
495.57	2.127
495.91	2.154
496.25	2.159
496.60	2.144
496.94	2.116
497.28	2.072
497.62	2.045
497.97	2.004
498.31	1.952
498.65	1.907
498.99	1.882
499.33	1.837
499.68	1.797
500.02	1.756
500.36	1.764
500.70	1.752
501.04	1.743
501.39	1.736
501.73	1.737
502.07	1.746
502.41	1.751
502.75	1.730
503.09	1.745
503.44	1.760
503.78	1.808
504.12	1.818
504.46	1.874
504.80	1.908
505.14	1.962
505.49	1.989
505.83	2.028
506.17	2.053
506.51	2.091
506.85	2.130
507.19	2.161
507.53	2.176
507.87	2.187
508.22	2.177
508.56	2.159
508.90	2.141
509.24	2.156
509.58	2.143
509.92	2.141
510.26	2.122
510.60	2.094
510.94	2.059
511.28	2.027
511.63	2.015
511.97	1.999
512.31	2.007
512.65	2.009
512.99	2.026
513.33	2.081
513.67	2.127
514.01	2.216
514.35	2.313
514.69	2.438
515.03	2.555
515.37	2.643
515.71	2.727
516.05	2.813
516.39	2.873
516.73	2.913
517.07	2.916
517.41	2.920
517.75	2.883
518.09	2.832
518.43	2.735
518.77	2.632
519.11	2.529
519.45	2.418
519.79	2.317
520.13	2.245
520.47	2.178
520.81	2.149
521.15	2.151
521.49	2.197
521.83	2.246
522.17	2.333
522.51	2.453
522.85	2.601
523.19	2.816
523.53	3.052
523.87	3.301
524.21	3.546
524.55	3.763
524.89	3.947
525.23	4.100
525.57	4.260
525.91	4.397
526.25	4.513
526.58	4.624
526.92	4.685
527.26	4.707
527.60	4.661
527.94	4.604
528.28	4.539
528.62	4.460
528.96	4.391
529.30	4.302
529.64	4.203
529.97	4.103
530.31	3.979
530.65	3.866
530.99	3.784
531.33	3.755
531.67	3.723
532.01	3.692
532.35	3.654
532.68	3.584
533.02	3.514
533.36	3.447
533.70	3.370
534.04	3.291
534.38	3.215
534.71	3.124
535.05	3.034
535.39	2.951
535.73	2.868
536.07	2.844
536.41	2.871
536.74	2.930
537.08	3.001
537.42	3.099
537.76	3.219
538.10	3.346
538.43	3.460
538.77	3.564
539.11	3.669
539.45	3.768
539.79	3.831
540.12	3.860
540.46	3.851
540.80	3.823
541.14	3.771
541.47	3.714
541.81	3.635
542.15	3.539
542.49	3.438
542.82	3.317
543.16	3.179
543.50	3.045
543.84	2.924
544.17	2.825
544.51	2.743
544.85	2.668
545.18	2.589
545.52	2.496
545.86	2.409
546.20	2.299
546.53	2.187
546.87	2.070
547.21	1.974
547.54	1.883
547.88	1.783
548.22	1.708
548.55	1.654
548.89	1.592
549.23	1.566
549.56	1.549
549.90	1.549
550.24	1.534
550.57	1.558
550.91	1.551
551.25	1.541
551.58	1.542
551.92	1.529
552.26	1.500
552.59	1.449
552.93	1.400
553.27	1.354
553.60	1.318
553.94	1.296
554.27	1.276
554.61	1.257
554.95	1.225
555.28	1.182
555.62	1.165
555.95	1.150
556.29	1.146
556.63	1.164
556.96	1.160
557.30	1.158
557.63	1.173
557.97	1.134
558.31	1.100
558.64	1.084
558.98	1.076
559.31	1.053
559.65	1.026
559.98	1.044
560.32	1.009
560.65	1.000
560.99	1.006
561.33	1.006
561.66	1.052
562.00	1.096
562.33	1.154
562.67	1.228
563.00	1.290
563.34	1.350
563.67	1.382
564.01	1.447
564.34	1.496
564.68	1.515
565.01	1.523
565.35	1.519
565.68	1.499
566.02	1.478
566.35	1.441
566.69	1.429
567.02	1.416
567.36	1.407
567.69	1.377
568.03	1.367
568.36	1.366
568.69	1.343
569.03	1.327
569.36	1.322
569.70	1.333
570.03	1.333
570.37	1.319
570.70	1.286
571.04	1.246
571.37	1.198
571.70	1.138
572.04	1.059
572.37	1.001
572.71	0.937
573.04	0.865
573.37	0.760
573.71	0.653
574.04	0.501
574.38	0.381
574.71	0.235
575.04	0.079
575.38	-0.106
575.71	-0.287
576.05	-0.460
576.38	-0.658
576.71	-0.876
577.05	-1.103
577.38	-1.340
577.71	-1.552
578.05	-1.776
578.38	-1.974
578.71	-2.165
579.05	-2.340
579.38	-2.543
579.71	-2.749
580.05	-2.906
580.38	-3.092
580.71	-3.273
581.05	-3.423
581.38	-3.614
581.71	-3.798
582.05	-3.944
582.38	-4.115
582.71	-4.257
583.04	-4.320
583.38	-4.390
583.71	-4.479
584.04	-4.484
584.38	-4.493
584.71	-4.477
585.04	-4.371
585.37	-4.291
585.71	-4.217
586.04	-4.111
586.37	-3.994
586.70	-3.914
587.04	-3.848
587.37	-3.820
587.70	-3.849
588.03	-3.872
588.37	-3.934
588.70	-4.048
589.03	-4.120
589.36	-4.271
589.69	-4.417
590.03	-4.594
590.36	-4.830
590.69	-5.008
591.02	-5.137
591.35	-5.252
591.69	-5.285
592.02	-5.330
592.35	-5.331
592.68	-5.351
593.01	-5.315
593.35	-5.285
593.68	-5.247
594.01	-5.210
594.34	-5.226
594.67	-5.247
595.00	-5.260
595.34	-5.375
595.67	-5.522
596.00	-5.723
596.33	-6.020
596.66	-6.365
596.99	-6.754
597.32	-7.158
597.65	-7.539
597.99	-7.916
598.32	-8.281
598.65	-8.658
598.98	-8.949
599.31	-9.099
599.64	-9.140
599.97	-9.060
600.30	-8.903
600.63	-8.693
600.96	-8.475
601.30	-8.248
601.63	-8.064
601.96	-7.938
602.29	-7.851
602.62	-7.806
602.95	-7.826
603.28	-7.924
603.61	-8.061
603.94	-8.269
604.27	-8.517
604.60	-8.760
604.93	-9.023
605.26	-9.254
605.59	-9.435
605.92	-9.610
606.25	-9.753
606.58	-9.891
606.91	-9.997
607.24	-10.040
607.57	-10.048
607.90	-10.072
608.23	-10.154
608.56	-10.310
608.89	-10.533
609.22	-10.829
609.55	-11.168
609.88	-11.597
610.21	-12.037
610.54	-12.508
610.87	-13.049
611.20	-13.594
611.53	-14.074
611.86	-14.600
612.19	-14.998
612.52	-15.325
612.85	-15.609
613.18	-15.799
613.51	-15.864
613.84	-15.955
614.17	-16.083
614.49	-16.097
614.82	-16.165
615.15	-16.230
615.48	-16.249
615.81	-16.338
616.14	-16.397
616.47	-16.472
616.80	-16.470
617.13	-16.659
617.46	-16.784
617.78	-16.843
618.11	-17.026
618.44	-17.164
618.77	-17.303
619.10	-17.434
619.43	-17.528
619.76	-17.605
620.09	-17.623
620.41	-17.701
620.74	-17.654
621.07	-17.556
621.40	-17.450
621.73	-17.202
622.06	-16.919
622.38	-16.619
622.71	-16.224
623.04	-15.841
623.37	-15.423
623.70	-15.006
624.02	-14.634
624.35	-14.244
624.68	-13.949
625.01	-13.663
625.34	-13.463
625.66	-13.259
625.99	-13.246
626.32	-13.260
626.65	-13.355
626.98	-13.519
627.30	-13.799
627.63	-14.063
627.96	-14.380
628.29	-14.730
628.61	-15.100
628.94	-15.455
629.27	-15.915
629.60	-16.145
629.92	-16.481
630.25	-16.624
630.58	-16.802
630.91	-16.856
631.23	-16.946
631.56	-17.010
631.89	-17.070
632.21	-17.166
632.54	-17.251
632.87	-17.317
633.19	-17.560
633.52	-17.716
633.85	-18.043
634.18	-18.422
634.50	-18.839
634.83	-19.261
635.16	-19.661
635.48	-20.058
635.81	-20.435
636.14	-20.901
636.46	-21.356
636.79	-21.743
637.11	-22.153
637.44	-22.509
637.77	-22.775
638.09	-23.052
638.42	-23.204
638.75	-23.461
639.07	-23.818
639.40	-24.103
639.73	-24.368
640.05	-24.620
640.38	-24.788
640.70	-24.924
641.03	-25.056
641.36	-25.019
641.68	-24.968
642.01	-25.002
642.33	-24.867
642.66	-24.613
642.98	-24.364
643.31	-24.061
643.64	-23.698
643.96	-23.311
644.29	-22.936
644.61	-22.569
644.94	-22.337
645.26	-22.110
645.59	-21.871
645.91	-21.679
646.24	-21.519
646.56	-21.464
646.89	-21.420
647.22	-21.429
647.54	-21.453
647.87	-21.547
648.19	-21.586
648.52	-21.699
648.84	-21.827
649.17	-21.977
