OOIBase32 Version 2.0.0.6 Data File
++++++++++++++++++++++++++++++++++++
Date: 01-22-2012, 12:50:50
User: Valued Ocean Optics Customer
Spectrometer Serial Number: USB2E2917
Spectrometer Channel: Master
Integration Time (msec): 5
Spectra Averaged: 10
Boxcar Smoothing: 5
Correct for Electrical Dark: Enabled
Time Normalized: Disabled
Dual-beam Reference: Disabled
Reference Channel: Master
Temperature: Not acquired
Spectrometer Type: S2000
ADC Type: USB2000
Number of Pixels in File: 2048
Graph Title: 
>>>>>Begin Spectral Data<<<<<
180.30	0.000
180.67	0.000
181.03	73.192
181.40	29.690
181.77	70.901
182.14	69.510
182.51	22.880
182.88	-1.196
183.25	62.046
183.62	-93.932
183.99	11.913
184.36	-92.663
184.73	-80.561
185.10	11.883
185.46	-168.973
185.83	-306.580
186.20	-44.177
186.57	57.655
186.94	-1668.095
187.31	28.956
187.68	62.046
188.05	87.188
188.42	16.000
188.78	-40.480
189.15	229.507
189.52	97.810
189.89	146.488
190.26	85.507
190.63	59.727
191.00	33.764
191.37	14.570
191.73	14.604
192.10	22.735
192.47	20.456
192.84	24.039
193.21	26.386
193.58	32.831
193.94	1.189
194.31	20.095
194.68	8.214
195.05	7.778
195.42	27.527
195.79	30.518
196.15	29.515
196.52	32.225
196.89	11.911
197.26	25.305
197.63	30.489
198.00	49.880
198.36	27.648
198.73	50.744
199.10	47.721
199.47	34.107
199.84	27.272
200.20	42.264
200.57	23.661
200.94	31.214
201.31	8.679
201.68	5.583
202.04	-21.395
202.41	-13.500
202.78	-10.912
203.15	-13.100
203.51	-25.515
203.88	-33.592
204.25	-30.998
204.62	-10.386
204.98	-11.323
205.35	-19.157
205.72	-41.470
206.09	-36.162
206.46	-37.012
206.82	-20.782
207.19	-12.113
207.56	-0.392
207.92	10.333
208.29	14.302
208.66	13.863
209.03	21.595
209.39	28.177
209.76	36.829
210.13	26.957
210.50	25.845
210.86	17.961
211.23	24.600
211.60	34.565
211.96	38.199
212.33	32.862
212.70	27.777
213.07	24.973
213.43	21.701
213.80	17.352
214.17	21.088
214.53	20.597
214.90	19.734
215.27	0.245
215.63	-12.335
216.00	-23.024
216.37	-35.926
216.74	-31.748
217.10	-15.776
217.47	-19.052
217.84	0.658
218.20	-5.321
218.57	2.479
218.94	2.822
219.30	9.813
219.67	8.197
220.04	8.607
220.40	8.482
220.77	18.237
221.13	15.261
221.50	16.064
221.87	6.639
222.23	16.495
222.60	17.431
222.97	20.380
223.33	19.788
223.70	22.384
224.07	24.937
224.43	23.590
224.80	18.734
225.16	14.191
225.53	9.302
225.90	7.498
226.26	5.953
226.63	2.224
226.99	0.897
227.36	1.858
227.73	0.656
228.09	-0.656
228.46	0.477
228.82	-1.238
229.19	-0.191
229.56	2.989
229.92	3.745
230.29	4.379
230.65	7.325
231.02	9.261
231.38	9.009
231.75	9.935
232.12	11.749
232.48	12.138
232.85	13.412
233.21	12.685
233.58	10.267
233.94	9.810
234.31	7.831
234.68	6.219
235.04	3.248
235.41	3.219
235.77	2.144
236.14	0.880
236.50	-0.864
236.87	-0.609
237.23	-1.663
237.60	-0.456
237.96	0.517
238.33	1.492
238.69	2.262
239.06	3.123
239.42	2.727
239.79	3.394
240.15	3.394
240.52	2.825
240.88	3.155
241.25	3.627
241.61	3.385
241.98	3.314
242.34	3.440
242.71	3.431
243.07	3.091
243.44	3.724
243.80	3.361
244.17	3.138
244.53	3.475
244.90	3.034
245.26	3.018
245.63	3.204
245.99	3.247
246.36	3.073
246.72	3.081
247.09	3.211
247.45	3.300
247.81	3.557
248.18	3.498
248.54	3.694
248.91	3.693
249.27	3.688
249.64	3.706
250.00	3.480
250.36	3.198
250.73	3.245
251.09	3.353
251.46	3.020
251.82	2.696
252.19	3.195
252.55	3.132
252.91	3.905
253.28	4.052
253.64	4.041
254.01	4.113
254.37	3.784
254.73	3.219
255.10	3.146
255.46	2.963
255.83	2.959
256.19	2.578
256.55	2.705
256.92	2.745
257.28	2.721
257.65	2.610
258.01	2.720
258.37	2.939
258.74	3.065
259.10	2.998
259.46	2.958
259.83	3.090
260.19	3.265
260.55	2.989
260.92	2.697
261.28	2.837
261.64	3.045
262.01	2.745
262.37	3.100
262.73	2.944
263.10	3.053
263.46	2.962
263.82	2.688
264.19	2.743
264.55	2.723
264.91	2.882
265.28	2.808
265.64	2.815
266.00	2.848
266.37	2.735
266.73	2.761
267.09	2.918
267.46	2.707
267.82	2.952
268.18	3.232
268.54	3.254
268.91	3.382
269.27	3.390
269.63	3.351
270.00	3.283
270.36	3.229
270.72	3.231
271.08	2.903
271.45	3.165
271.81	3.206
272.17	2.981
272.53	3.112
272.90	2.910
273.26	2.892
273.62	2.790
273.98	2.890
274.35	2.780
274.71	2.909
275.07	3.136
275.43	3.138
275.80	3.070
276.16	2.890
276.52	2.732
276.88	3.139
277.25	3.131
277.61	2.876
277.97	2.814
278.33	2.812
278.69	2.691
279.06	2.398
279.42	2.436
279.78	2.438
280.14	2.612
280.50	2.664
280.87	2.185
281.23	2.400
281.59	2.758
281.95	2.793
282.31	2.739
282.68	2.815
283.04	2.932
283.40	2.944
283.76	3.004
284.12	2.999
284.48	3.148
284.85	3.253
285.21	2.969
285.57	2.643
285.93	2.712
286.29	2.819
286.65	2.623
287.02	2.720
287.38	2.589
287.74	2.535
288.10	2.621
288.46	2.498
288.82	2.526
289.18	2.486
289.54	2.847
289.91	3.055
290.27	3.071
290.63	3.210
290.99	3.037
291.35	3.149
291.71	2.932
292.07	2.731
292.43	2.751
292.79	2.843
293.16	3.116
293.52	3.226
293.88	3.169
294.24	3.252
294.60	3.294
294.96	3.315
295.32	3.259
295.68	3.473
296.04	3.623
296.40	3.637
296.76	3.686
297.12	3.634
297.49	3.493
297.85	3.487
298.21	3.310
298.57	3.398
298.93	3.348
299.29	3.574
299.65	3.483
300.01	3.332
300.37	3.528
300.73	3.613
301.09	3.549
301.45	3.676
301.81	3.571
302.17	3.591
302.53	3.685
302.89	3.865
303.25	3.733
303.61	3.830
303.97	3.888
304.33	3.782
304.69	3.677
305.05	3.776
305.41	3.696
305.77	3.790
306.13	3.812
306.49	3.580
306.85	3.531
307.21	3.506
307.57	3.509
307.93	3.540
308.29	3.464
308.65	3.406
309.01	3.354
309.37	3.312
309.73	3.110
310.09	3.181
310.45	3.115
310.81	3.181
311.17	3.182
311.53	3.181
311.89	3.188
312.25	3.313
312.61	3.277
312.96	3.339
313.32	3.318
313.68	3.551
314.04	3.472
314.40	3.616
314.76	3.464
315.12	3.453
315.48	3.415
315.84	3.488
316.20	3.507
316.56	3.588
316.92	3.538
317.27	3.466
317.63	3.178
317.99	3.116
318.35	3.042
318.71	3.154
319.07	3.034
319.43	3.055
319.79	2.963
320.15	2.762
320.50	2.703
320.86	2.620
321.22	2.634
321.58	2.931
321.94	2.964
322.30	2.881
322.66	2.812
323.01	2.792
323.37	2.695
323.73	2.569
324.09	2.522
324.45	2.404
324.81	2.265
325.17	2.239
325.52	2.034
325.88	2.054
326.24	2.096
326.60	2.012
326.96	2.080
327.31	2.108
327.67	2.107
328.03	2.135
328.39	2.239
328.75	2.275
329.11	2.302
329.46	2.380
329.82	2.309
330.18	2.389
330.54	2.368
330.90	2.446
331.25	2.377
331.61	2.417
331.97	2.417
332.33	2.343
332.68	2.458
333.04	2.471
333.40	2.412
333.76	2.530
334.11	2.489
334.47	2.600
334.83	2.466
335.19	2.433
335.54	2.294
335.90	2.345
336.26	2.346
336.62	2.266
336.97	2.259
337.33	2.242
337.69	2.222
338.05	2.119
338.40	1.967
338.76	2.026
339.12	1.976
339.48	2.137
339.83	2.190
340.19	2.154
340.55	2.317
340.90	2.263
341.26	2.411
341.62	2.420
341.97	2.613
342.33	2.616
342.69	2.626
343.04	2.668
343.40	2.603
343.76	2.572
344.12	2.621
344.47	2.425
344.83	2.442
345.19	2.276
345.54	2.129
345.90	1.950
346.26	1.981
346.61	1.926
346.97	1.924
347.32	1.927
347.68	1.837
348.04	1.775
348.39	1.875
348.75	1.860
349.11	1.830
349.46	1.858
349.82	1.934
350.18	1.976
350.53	2.019
350.89	1.976
351.24	1.930
351.60	2.022
351.96	2.065
352.31	2.071
352.67	2.084
353.02	2.148
353.38	2.179
353.74	2.262
354.09	2.223
354.45	2.278
354.80	2.357
355.16	2.530
355.52	2.500
355.87	2.526
356.23	2.540
356.58	2.593
356.94	2.639
357.29	2.680
357.65	2.618
358.00	2.690
358.36	2.641
358.72	2.617
359.07	2.529
359.43	2.492
359.78	2.479
360.14	2.527
360.49	2.533
360.85	2.484
361.20	2.455
361.56	2.455
361.91	2.401
362.27	2.320
362.62	2.320
362.98	2.280
363.33	2.252
363.69	2.198
364.04	2.050
364.40	2.021
364.75	1.991
365.11	1.948
365.46	1.914
365.82	1.930
366.17	2.018
366.53	2.023
366.88	2.014
367.24	2.096
367.59	2.125
367.95	2.251
368.30	2.264
368.66	2.343
369.01	2.362
369.37	2.436
369.72	2.487
370.08	2.487
370.43	2.465
370.78	2.581
371.14	2.558
371.49	2.641
371.85	2.653
372.20	2.661
372.56	2.663
372.91	2.694
373.26	2.632
373.62	2.645
373.97	2.609
374.33	2.706
374.68	2.598
375.03	2.598
375.39	2.548
375.74	2.532
376.10	2.508
376.45	2.521
376.80	2.559
377.16	2.668
377.51	2.746
377.87	2.858
378.22	2.902
378.57	3.020
378.93	3.140
379.28	3.254
379.63	3.361
379.99	3.496
380.34	3.600
380.70	3.707
381.05	3.741
381.40	3.746
381.76	3.774
382.11	3.802
382.46	3.802
382.82	3.792
383.17	3.792
383.52	3.768
383.88	3.736
384.23	3.706
384.58	3.653
384.94	3.632
385.29	3.614
385.64	3.611
385.99	3.597
386.35	3.632
386.70	3.609
387.05	3.611
387.41	3.580
387.76	3.606
388.11	3.641
388.47	3.657
388.82	3.679
389.17	3.733
389.52	3.775
389.88	3.850
390.23	3.890
390.58	3.963
390.93	4.024
391.29	4.123
391.64	4.181
391.99	4.220
392.34	4.261
392.70	4.271
393.05	4.255
393.40	4.249
393.75	4.217
394.11	4.188
394.46	4.152
394.81	4.123
395.16	4.053
395.52	3.993
395.87	3.886
396.22	3.823
396.57	3.766
396.92	3.653
397.28	3.582
397.63	3.470
397.98	3.357
398.33	3.262
398.68	3.176
399.04	3.121
399.39	3.083
399.74	3.100
400.09	3.099
400.44	3.088
400.80	3.163
401.15	3.190
401.50	3.256
401.85	3.362
402.20	3.432
402.55	3.499
402.90	3.558
403.26	3.616
403.61	3.616
403.96	3.608
404.31	3.625
404.66	3.619
405.01	3.593
405.36	3.573
405.72	3.544
406.07	3.537
406.42	3.503
406.77	3.494
407.12	3.425
407.47	3.407
407.82	3.411
408.17	3.415
408.53	3.414
408.88	3.406
409.23	3.428
409.58	3.396
409.93	3.360
410.28	3.375
410.63	3.363
410.98	3.385
411.33	3.388
411.68	3.416
412.03	3.468
412.38	3.489
412.73	3.549
413.09	3.627
413.44	3.719
413.79	3.850
414.14	3.912
414.49	4.027
414.84	4.131
415.19	4.252
415.54	4.384
415.89	4.480
416.24	4.590
416.59	4.715
416.94	4.756
417.29	4.828
417.64	4.861
417.99	4.915
418.34	4.948
418.69	4.983
419.04	5.010
419.39	5.022
419.74	5.039
420.09	5.040
420.44	5.004
420.79	5.016
421.14	5.009
421.49	4.998
421.84	4.996
422.19	4.945
422.54	4.913
422.89	4.890
423.24	4.838
423.59	4.765
423.94	4.693
424.29	4.638
424.64	4.546
424.99	4.443
425.34	4.352
425.68	4.253
426.03	4.213
426.38	4.148
426.73	4.058
427.08	3.983
427.43	3.968
427.78	3.991
428.13	3.998
428.48	4.058
428.83	4.101
429.18	4.156
429.53	4.169
429.87	4.183
430.22	4.196
430.57	4.217
430.92	4.241
431.27	4.243
431.62	4.229
431.97	4.192
432.32	4.153
432.67	4.125
433.01	4.069
433.36	4.052
433.71	3.998
434.06	3.969
434.41	3.954
434.76	3.943
435.11	3.949
435.45	3.958
435.80	4.020
436.15	4.049
436.50	4.113
436.85	4.174
437.20	4.206
437.54	4.248
437.89	4.251
438.24	4.244
438.59	4.236
438.94	4.208
439.29	4.186
439.63	4.128
439.98	4.090
440.33	4.020
440.68	3.983
441.03	3.958
441.37	3.952
441.72	3.965
442.07	3.995
442.42	4.002
442.76	4.049
443.11	4.083
443.46	4.114
443.81	4.143
444.16	4.158
444.50	4.160
444.85	4.142
445.20	4.103
445.55	4.051
445.89	3.972
446.24	3.875
446.59	3.747
446.94	3.616
447.28	3.498
447.63	3.349
447.98	3.225
448.32	3.103
448.67	2.994
449.02	2.891
449.37	2.798
449.71	2.758
450.06	2.768
450.41	2.770
450.75	2.800
451.10	2.790
451.45	2.787
451.79	2.792
452.14	2.752
452.49	2.739
452.84	2.740
453.18	2.746
453.53	2.747
453.88	2.755
454.22	2.780
454.57	2.806
454.92	2.876
455.26	2.945
455.61	3.031
455.95	3.166
456.30	3.256
456.65	3.339
456.99	3.448
457.34	3.535
457.69	3.598
458.03	3.634
458.38	3.653
458.73	3.651
459.07	3.654
459.42	3.611
459.76	3.542
460.11	3.480
460.46	3.419
460.80	3.300
461.15	3.204
461.49	3.143
461.84	3.087
462.19	3.044
462.53	3.016
462.88	3.008
463.22	3.043
463.57	3.089
463.91	3.156
464.26	3.207
464.61	3.298
464.95	3.349
465.30	3.401
465.64	3.441
465.99	3.489
466.33	3.525
466.68	3.530
467.02	3.535
467.37	3.537
467.71	3.526
468.06	3.537
468.41	3.515
468.75	3.526
469.10	3.484
469.44	3.479
469.79	3.447
470.13	3.426
470.48	3.403
470.82	3.360
471.17	3.335
471.51	3.297
471.86	3.274
472.20	3.250
472.55	3.193
472.89	3.190
473.23	3.165
473.58	3.158
473.92	3.165
474.27	3.196
474.61	3.219
474.96	3.207
475.30	3.221
475.65	3.218
475.99	3.221
476.34	3.253
476.68	3.272
477.02	3.296
477.37	3.321
477.71	3.371
478.06	3.460
478.40	3.649
478.75	3.931
479.09	4.232
479.43	4.558
479.78	4.892
480.12	5.226
480.47	5.550
480.81	5.852
481.15	6.137
481.50	6.417
481.84	6.707
482.19	6.982
482.53	7.206
482.87	7.357
483.22	7.405
483.56	7.358
483.90	7.233
484.25	7.070
484.59	6.885
484.94	6.677
485.28	6.444
485.62	6.198
485.97	5.953
486.31	5.742
486.65	5.594
487.00	5.497
487.34	5.468
487.68	5.460
488.03	5.477
488.37	5.511
488.71	5.566
489.06	5.629
489.40	5.670
489.74	5.680
490.09	5.671
490.43	5.644
490.77	5.608
491.11	5.550
491.46	5.501
491.80	5.443
492.14	5.389
492.49	5.328
492.83	5.277
493.17	5.227
493.51	5.226
493.86	5.236
494.20	5.279
494.54	5.370
494.88	5.508
495.23	5.663
495.57	5.819
495.91	5.965
496.25	6.125
496.60	6.275
496.94	6.408
497.28	6.539
497.62	6.695
497.97	6.861
498.31	7.027
498.65	7.198
498.99	7.395
499.33	7.591
499.68	7.822
500.02	8.058
500.36	8.292
500.70	8.534
501.04	8.789
501.39	9.048
501.73	9.312
502.07	9.582
502.41	9.870
502.75	10.150
503.09	10.472
503.44	10.788
503.78	11.080
504.12	11.445
504.46	11.835
504.80	12.193
505.14	12.568
505.49	12.916
505.83	13.286
506.17	13.619
506.51	13.988
506.85	14.338
507.19	14.688
507.53	15.048
507.87	15.369
508.22	15.691
508.56	16.024
508.90	16.355
509.24	16.714
509.58	17.043
509.92	17.399
510.26	17.732
510.60	18.093
510.94	18.420
511.28	18.775
511.63	19.143
511.97	19.514
512.31	19.905
512.65	20.262
512.99	20.655
513.33	21.110
513.67	21.563
514.01	22.063
514.35	22.516
514.69	22.976
515.03	23.433
515.37	23.839
515.71	24.227
516.05	24.611
516.39	24.998
516.73	25.337
517.07	25.641
517.41	25.901
517.75	26.127
518.09	26.385
518.43	26.622
518.77	26.832
519.11	27.034
519.45	27.247
519.79	27.450
520.13	27.696
520.47	27.963
520.81	28.257
521.15	28.594
521.49	28.944
521.83	29.278
522.17	29.630
522.51	30.011
522.85	30.442
523.19	30.959
523.53	31.549
523.87	32.143
524.21	32.713
524.55	33.276
524.89	33.803
525.23	34.326
525.57	34.812
525.91	35.291
526.25	35.744
526.58	36.174
526.92	36.498
527.26	36.626
527.60	36.552
527.94	36.513
528.28	36.465
528.62	36.420
528.96	36.344
529.30	36.247
529.64	36.107
529.97	35.923
530.31	35.726
530.65	35.565
530.99	35.593
531.33	35.845
531.67	36.022
532.01	36.175
532.35	36.261
532.68	36.287
533.02	36.279
533.36	36.300
533.70	36.313
534.04	36.307
534.38	36.330
534.71	36.318
535.05	36.296
535.39	36.294
535.73	36.289
536.07	36.368
536.41	36.500
536.74	36.688
537.08	36.848
537.42	37.055
537.76	37.272
538.10	37.516
538.43	37.739
538.77	37.943
539.11	38.124
539.45	38.311
539.79	38.438
540.12	38.551
540.46	38.574
540.80	38.579
541.14	38.566
541.47	38.552
541.81	38.464
542.15	38.398
542.49	38.324
542.82	38.233
543.16	38.120
543.50	38.012
543.84	37.874
544.17	37.845
544.51	37.812
544.85	37.773
545.18	37.746
545.52	37.722
545.86	37.652
546.20	37.573
546.53	37.542
546.87	37.457
547.21	37.392
547.54	37.359
547.88	37.314
548.22	37.296
548.55	37.296
548.89	37.273
549.23	37.228
549.56	37.260
549.90	37.282
550.24	37.281
550.57	37.328
550.91	37.365
551.25	37.391
551.58	37.379
551.92	37.372
552.26	37.374
552.59	37.363
552.93	37.399
553.27	37.376
553.60	37.376
553.94	37.394
554.27	37.398
554.61	37.364
554.95	37.339
555.28	37.339
555.62	37.365
555.95	37.339
556.29	37.324
556.63	37.305
556.96	37.307
557.30	37.319
557.63	37.302
557.97	37.233
558.31	37.217
558.64	37.241
558.98	37.246
559.31	37.189
559.65	37.203
559.98	37.197
560.32	37.213
560.65	37.203
560.99	37.151
561.33	37.123
561.66	37.190
562.00	37.240
562.33	37.230
562.67	37.260
563.00	37.301
563.34	37.315
563.67	37.351
564.01	37.347
564.34	37.333
564.68	37.401
565.01	37.413
565.35	37.373
565.68	37.315
566.02	37.294
566.35	37.268
566.69	37.223
567.02	37.192
567.36	37.124
567.69	37.116
568.03	37.117
568.36	37.086
568.69	37.074
569.03	37.039
569.36	36.983
569.70	36.955
570.03	36.937
570.37	36.937
570.70	36.893
571.04	36.858
571.37	36.768
571.70	36.715
572.04	36.636
572.37	36.535
572.71	36.474
573.04	36.470
573.37	36.376
573.71	36.253
574.04	36.148
574.38	36.025
574.71	35.914
575.04	35.812
575.38	35.651
575.71	35.517
576.05	35.375
576.38	35.241
576.71	35.028
577.05	34.896
577.38	34.727
577.71	34.551
578.05	34.377
578.38	34.208
578.71	34.044
579.05	33.921
579.38	33.753
579.71	33.643
580.05	33.477
580.38	33.345
580.71	33.205
581.05	33.059
581.38	32.876
581.71	32.721
582.05	32.575
582.38	32.492
582.71	32.360
583.04	32.225
583.38	32.098
583.71	32.006
584.04	31.950
584.38	31.854
584.71	31.843
585.04	31.844
585.37	31.856
585.71	31.867
586.04	31.840
586.37	31.847
586.70	31.854
587.04	31.816
587.37	31.785
587.70	31.725
588.03	31.626
588.37	31.486
588.70	31.355
589.03	31.216
589.36	31.041
589.69	30.848
590.03	30.663
590.36	30.474
590.69	30.290
591.02	30.096
591.35	29.899
591.69	29.792
592.02	29.693
592.35	29.611
592.68	29.509
593.01	29.430
593.35	29.369
593.68	29.291
594.01	29.236
594.34	29.190
594.67	29.133
595.00	29.078
595.34	28.947
595.67	28.783
596.00	28.587
596.33	28.379
596.66	28.124
596.99	27.816
597.32	27.541
597.65	27.240
597.99	26.900
598.32	26.553
598.65	26.228
598.98	25.967
599.31	25.753
599.64	25.639
599.97	25.592
600.30	25.582
600.63	25.628
600.96	25.656
601.30	25.676
601.63	25.729
601.96	25.799
602.29	25.815
602.62	25.762
602.95	25.710
603.28	25.566
603.61	25.410
603.94	25.189
604.27	24.964
604.60	24.739
604.93	24.511
605.26	24.242
605.59	23.951
605.92	23.709
606.25	23.536
606.58	23.377
606.91	23.254
607.24	23.130
607.57	23.066
607.90	22.968
608.23	22.831
608.56	22.656
608.89	22.475
609.22	22.255
609.55	22.009
609.88	21.683
610.21	21.281
610.54	20.873
610.87	20.463
611.20	20.085
611.53	19.653
611.86	19.255
612.19	18.953
612.52	18.631
612.85	18.394
613.18	18.149
613.51	17.993
613.84	17.854
614.17	17.716
614.49	17.638
614.82	17.454
615.15	17.332
615.48	17.231
615.81	17.107
616.14	16.990
616.47	16.875
616.80	16.801
617.13	16.587
617.46	16.454
617.78	16.317
618.11	16.142
618.44	15.987
618.77	15.852
619.10	15.683
619.43	15.525
619.76	15.427
620.09	15.311
620.41	15.182
620.74	15.137
621.07	15.111
621.40	15.159
621.73	15.203
622.06	15.354
622.38	15.478
622.71	15.627
623.04	15.817
623.37	15.964
623.70	16.158
624.02	16.331
624.35	16.532
624.68	16.685
625.01	16.773
625.34	16.816
625.66	16.874
625.99	16.821
626.32	16.774
626.65	16.611
626.98	16.460
627.30	16.206
627.63	15.942
627.96	15.677
628.29	15.383
628.61	15.028
628.94	14.760
629.27	14.367
629.60	14.164
629.92	13.876
630.25	13.661
630.58	13.456
630.91	13.354
631.23	13.252
631.56	13.116
631.89	12.976
632.21	12.883
632.54	12.730
632.87	12.584
633.19	12.288
633.52	12.097
633.85	11.894
634.18	11.635
634.50	11.310
634.83	10.955
635.16	10.674
635.48	10.301
635.81	9.905
636.14	9.531
636.46	9.172
636.79	8.913
637.11	8.536
637.44	8.157
637.77	7.898
638.09	7.635
638.42	7.402
638.75	7.137
639.07	6.844
639.40	6.630
639.73	6.361
640.05	6.099
640.38	5.880
640.70	5.769
641.03	5.642
641.36	5.501
641.68	5.460
642.01	5.421
642.33	5.412
642.66	5.544
642.98	5.714
643.31	5.837
643.64	6.022
643.96	6.239
644.29	6.358
644.61	6.559
644.94	6.714
645.26	6.825
645.59	6.963
645.91	7.072
646.24	7.131
646.56	7.063
646.89	7.057
647.22	7.048
647.54	6.956
647.87	6.869
648.19	6.802
648.52	6.652
648.84	6.545
649.17	6.382
649.49	6.196
649.82	6.021
650.14	5.859
650.47	5.733
