OOIBase32 Version 2.0.0.6 Data File
++++++++++++++++++++++++++++++++++++
Date: 01-19-2012, 17:35:44
User: Valued Ocean Optics Customer
Spectrometer Serial Number: USB2E2917
Spectrometer Channel: Master
Integration Time (msec): 6
Spectra Averaged: 10
Boxcar Smoothing: 5
Correct for Electrical Dark: Enabled
Time Normalized: Disabled
Dual-beam Reference: Disabled
Reference Channel: Master
Temperature: Not acquired
Spectrometer Type: S2000
ADC Type: USB2000
Number of Pixels in File: 2048
Graph Title: 
>>>>>Begin Spectral Data<<<<<
180.30	0.000
180.67	0.000
181.03	165.572
181.40	-112.190
181.77	178.733
182.14	-18.176
182.51	120.624
182.88	153.604
183.25	343.264
183.62	76.491
183.99	-75.723
184.36	78.749
184.73	266.161
185.10	97.960
185.46	56.411
185.83	36.073
186.20	304.422
186.57	63.269
186.94	203.704
187.31	57.694
187.68	98.649
188.05	31.831
188.42	44.935
188.78	38.902
189.15	25.867
189.52	39.991
189.89	26.560
190.26	19.818
190.63	12.319
191.00	8.491
191.37	17.012
191.73	21.988
192.10	25.537
192.47	23.445
192.84	22.867
193.21	17.657
193.58	-1.076
193.94	-5.161
194.31	-18.510
194.68	-1.656
195.05	-11.463
195.42	-20.098
195.79	-16.429
196.15	8.573
196.52	3.435
196.89	-1.643
197.26	7.600
197.63	-2.918
198.00	-5.028
198.36	15.833
198.73	-3.591
199.10	4.274
199.47	10.545
199.84	-4.289
200.20	-11.091
200.57	-31.778
200.94	-14.377
201.31	-11.877
201.68	-3.274
202.04	2.082
202.41	-6.737
202.78	-3.794
203.15	1.624
203.51	-0.008
203.88	14.955
204.25	18.884
204.62	30.559
204.98	27.714
205.35	30.486
205.72	41.548
206.09	39.963
206.46	38.544
206.82	42.389
207.19	36.972
207.56	23.989
207.92	22.968
208.29	-6.488
208.66	-13.157
209.03	-18.166
209.39	-21.065
209.76	-12.726
210.13	-15.394
210.50	-11.724
210.86	-10.640
211.23	2.934
211.60	12.821
211.96	13.965
212.33	26.428
212.70	27.438
213.07	21.340
213.43	16.000
213.80	0.460
214.17	2.135
214.53	-13.781
214.90	-10.435
215.27	-12.926
215.63	-18.390
216.00	-17.534
216.37	-16.565
216.74	-14.382
217.10	-14.539
217.47	-16.491
217.84	-1.373
218.20	3.114
218.57	8.495
218.94	4.016
219.30	-3.139
219.67	-2.084
220.04	-10.983
220.40	-21.094
220.77	-20.211
221.13	-17.606
221.50	-19.894
221.87	-21.524
222.23	-20.284
222.60	-19.259
222.97	-13.803
223.33	-8.465
223.70	-5.373
224.07	-2.898
224.43	1.328
224.80	2.012
225.16	6.285
225.53	8.714
225.90	7.830
226.26	6.720
226.63	5.380
226.99	5.305
227.36	5.279
227.73	4.558
228.09	4.555
228.46	4.985
228.82	4.826
229.19	3.219
229.56	1.489
229.92	0.812
230.29	1.129
230.65	1.191
231.02	-0.224
231.38	-0.069
231.75	0.539
232.12	0.933
232.48	-0.099
232.85	-0.576
233.21	0.116
233.58	-0.001
233.94	-0.667
234.31	-0.071
234.68	0.745
235.04	0.942
235.41	-0.025
235.77	-1.176
236.14	-0.466
236.50	0.726
236.87	1.419
237.23	0.695
237.60	2.091
237.96	2.804
238.33	3.358
238.69	3.885
239.06	4.097
239.42	4.249
239.79	4.661
240.15	4.917
240.52	4.700
240.88	4.871
241.25	5.355
241.61	5.403
241.98	5.247
242.34	4.527
242.71	4.602
243.07	4.366
243.44	4.553
243.80	4.624
244.17	4.558
244.53	4.435
244.90	3.964
245.26	3.828
245.63	3.769
245.99	3.794
246.36	4.084
246.72	3.691
247.09	3.924
247.45	3.907
247.81	3.753
248.18	3.587
248.54	3.642
248.91	4.147
249.27	3.729
249.64	3.433
250.00	3.669
250.36	3.524
250.73	3.695
251.09	3.370
251.46	3.403
251.82	3.670
252.19	3.345
252.55	2.943
252.91	2.754
253.28	3.528
253.64	3.715
254.01	3.806
254.37	3.705
254.73	3.625
255.10	3.860
255.46	3.504
255.83	3.089
256.19	3.356
256.55	3.639
256.92	3.550
257.28	3.361
257.65	3.234
258.01	3.308
258.37	3.247
258.74	3.338
259.10	3.313
259.46	3.432
259.83	3.661
260.19	3.628
260.55	3.440
260.92	3.448
261.28	3.482
261.64	3.733
262.01	3.737
262.37	3.755
262.73	3.863
263.10	3.801
263.46	3.698
263.82	3.412
264.19	3.268
264.55	3.384
264.91	3.410
265.28	3.613
265.64	3.852
266.00	3.555
266.37	3.791
266.73	3.834
267.09	3.860
267.46	3.772
267.82	3.885
268.18	3.676
268.54	3.492
268.91	3.672
269.27	3.471
269.63	3.138
270.00	3.352
270.36	3.092
270.72	2.971
271.08	3.219
271.45	3.476
271.81	3.676
272.17	4.040
272.53	4.179
272.90	3.966
273.26	4.021
273.62	4.183
273.98	4.017
274.35	4.183
274.71	4.202
275.07	4.079
275.43	3.900
275.80	3.723
276.16	3.614
276.52	3.760
276.88	3.865
277.25	3.775
277.61	3.777
277.97	3.856
278.33	3.777
278.69	3.598
279.06	3.453
279.42	3.638
279.78	3.581
280.14	3.657
280.50	3.709
280.87	3.762
281.23	3.733
281.59	3.555
281.95	3.670
282.31	3.661
282.68	3.687
283.04	3.547
283.40	3.373
283.76	3.406
284.12	3.553
284.48	3.521
284.85	3.459
285.21	3.483
285.57	3.602
285.93	3.343
286.29	3.312
286.65	3.504
287.02	3.750
287.38	3.729
287.74	3.840
288.10	3.747
288.46	3.716
288.82	3.836
289.18	3.983
289.54	3.904
289.91	4.144
290.27	4.238
290.63	4.174
290.99	4.190
291.35	4.408
291.71	4.271
292.07	3.988
292.43	4.021
292.79	4.011
293.16	3.945
293.52	3.942
293.88	3.962
294.24	4.127
294.60	4.074
294.96	3.958
295.32	3.949
295.68	3.911
296.04	4.185
296.40	4.062
296.76	3.959
297.12	3.968
297.49	4.103
297.85	4.192
298.21	4.052
298.57	3.946
298.93	3.884
299.29	3.820
299.65	3.824
300.01	3.776
300.37	4.023
300.73	4.082
301.09	4.070
301.45	4.110
301.81	3.802
302.17	3.909
302.53	3.932
302.89	4.120
303.25	4.214
303.61	4.199
303.97	4.166
304.33	4.079
304.69	4.133
305.05	4.347
305.41	4.277
305.77	4.479
306.13	4.513
306.49	4.706
306.85	4.509
307.21	4.527
307.57	4.650
307.93	4.710
308.29	4.603
308.65	4.600
309.01	4.522
309.37	4.491
309.73	4.500
310.09	4.464
310.45	4.520
310.81	4.629
311.17	4.585
311.53	4.466
311.89	4.368
312.25	4.504
312.61	4.552
312.96	4.514
313.32	4.626
313.68	4.642
314.04	4.519
314.40	4.421
314.76	4.562
315.12	4.520
315.48	4.598
315.84	4.563
316.20	4.561
316.56	4.530
316.92	4.641
317.27	4.552
317.63	4.610
317.99	4.771
318.35	4.777
318.71	4.638
319.07	4.530
319.43	4.593
319.79	4.652
320.15	4.682
320.50	4.707
320.86	4.543
321.22	4.577
321.58	4.518
321.94	4.544
322.30	4.547
322.66	4.666
323.01	4.889
323.37	4.857
323.73	4.987
324.09	4.888
324.45	4.834
324.81	4.797
325.17	4.652
325.52	4.672
325.88	4.603
326.24	4.608
326.60	4.556
326.96	4.464
327.31	4.540
327.67	4.407
328.03	4.465
328.39	4.465
328.75	4.632
329.11	4.684
329.46	4.672
329.82	4.718
330.18	4.802
330.54	4.692
330.90	4.681
331.25	4.694
331.61	4.742
331.97	4.785
332.33	4.789
332.68	4.693
333.04	4.816
333.40	4.878
333.76	4.871
334.11	4.738
334.47	4.770
334.83	4.854
335.19	4.779
335.54	4.781
335.90	4.723
336.26	4.702
336.62	4.687
336.97	4.623
337.33	4.561
337.69	4.479
338.05	4.554
338.40	4.542
338.76	4.424
339.12	4.378
339.48	4.283
339.83	4.438
340.19	4.507
340.55	4.460
340.90	4.493
341.26	4.575
341.62	4.660
341.97	4.621
342.33	4.665
342.69	4.738
343.04	4.836
343.40	4.958
343.76	4.845
344.12	4.800
344.47	4.744
344.83	4.835
345.19	4.770
345.54	4.834
345.90	4.843
346.26	4.843
346.61	4.917
346.97	4.959
347.32	4.938
347.68	4.931
348.04	4.976
348.39	5.198
348.75	5.138
349.11	5.187
349.46	5.141
349.82	5.199
350.18	5.211
350.53	5.158
350.89	5.128
351.24	5.205
351.60	5.239
351.96	5.199
352.31	5.142
352.67	5.206
353.02	5.236
353.38	5.265
353.74	5.251
354.09	5.300
354.45	5.313
354.80	5.328
355.16	5.334
355.52	5.381
355.87	5.379
356.23	5.399
356.58	5.398
356.94	5.404
357.29	5.359
357.65	5.380
358.00	5.389
358.36	5.395
358.72	5.374
359.07	5.267
359.43	5.252
359.78	5.264
360.14	5.287
360.49	5.299
360.85	5.228
361.20	5.285
361.56	5.302
361.91	5.327
362.27	5.296
362.62	5.309
362.98	5.414
363.33	5.397
363.69	5.449
364.04	5.405
364.40	5.364
364.75	5.425
365.11	5.394
365.46	5.353
365.82	5.374
366.17	5.419
366.53	5.438
366.88	5.410
367.24	5.430
367.59	5.429
367.95	5.509
368.30	5.543
368.66	5.563
369.01	5.601
369.37	5.701
369.72	5.669
370.08	5.670
370.43	5.688
370.78	5.746
371.14	5.766
371.49	5.776
371.85	5.789
372.20	5.795
372.56	5.812
372.91	5.827
373.26	5.823
373.62	5.851
373.97	5.859
374.33	5.870
374.68	5.811
375.03	5.829
375.39	5.849
375.74	5.791
376.10	5.830
376.45	5.796
376.80	5.776
377.16	5.734
377.51	5.711
377.87	5.689
378.22	5.698
378.57	5.683
378.93	5.630
379.28	5.667
379.63	5.695
379.99	5.689
380.34	5.711
380.70	5.729
381.05	5.748
381.40	5.813
381.76	5.857
382.11	5.855
382.46	5.939
382.82	5.995
383.17	5.975
383.52	5.956
383.88	5.956
384.23	5.927
384.58	5.931
384.94	5.945
385.29	5.908
385.64	5.915
385.99	5.919
386.35	5.882
386.70	5.884
387.05	5.867
387.41	5.896
387.76	5.902
388.11	5.957
388.47	5.940
388.82	5.944
389.17	5.932
389.52	5.922
389.88	5.925
390.23	5.909
390.58	5.893
390.93	5.932
391.29	5.938
391.64	5.914
391.99	5.886
392.34	5.930
392.70	5.923
393.05	5.945
393.40	5.961
393.75	5.989
394.11	6.020
394.46	6.016
394.81	5.978
395.16	5.958
395.52	5.970
395.87	5.987
396.22	5.979
396.57	5.995
396.92	6.020
397.28	6.041
397.63	6.007
397.98	6.007
398.33	6.049
398.68	6.062
399.04	6.087
399.39	6.103
399.74	6.064
400.09	6.043
400.44	6.016
400.80	5.991
401.15	5.958
401.50	5.975
401.85	5.986
402.20	5.962
402.55	5.966
402.90	5.949
403.26	5.928
403.61	5.964
403.96	5.986
404.31	6.028
404.66	6.031
405.01	6.047
405.36	6.061
405.72	6.046
406.07	6.070
406.42	6.070
406.77	6.104
407.12	6.117
407.47	6.130
407.82	6.154
408.17	6.149
408.53	6.181
408.88	6.176
409.23	6.145
409.58	6.134
409.93	6.144
410.28	6.149
410.63	6.155
410.98	6.135
411.33	6.111
411.68	6.078
412.03	6.061
412.38	6.022
412.73	6.033
413.09	6.024
413.44	6.042
413.79	6.008
414.14	5.996
414.49	5.964
414.84	5.960
415.19	5.941
415.54	5.911
415.89	5.887
416.24	5.884
416.59	5.865
416.94	5.843
417.29	5.824
417.64	5.814
417.99	5.814
418.34	5.807
418.69	5.808
419.04	5.813
419.39	5.824
419.74	5.827
420.09	5.828
420.44	5.833
420.79	5.866
421.14	5.879
421.49	5.888
421.84	5.897
422.19	5.902
422.54	5.914
422.89	5.927
423.24	5.951
423.59	5.976
423.94	6.005
424.29	6.026
424.64	6.033
424.99	6.053
425.34	6.089
425.68	6.117
426.03	6.159
426.38	6.192
426.73	6.232
427.08	6.229
427.43	6.248
427.78	6.244
428.13	6.252
428.48	6.254
428.83	6.227
429.18	6.213
429.53	6.200
429.87	6.187
430.22	6.176
430.57	6.166
430.92	6.179
431.27	6.170
431.62	6.160
431.97	6.165
432.32	6.177
432.67	6.208
433.01	6.230
433.36	6.232
433.71	6.253
434.06	6.250
434.41	6.260
434.76	6.269
435.11	6.294
435.45	6.316
435.80	6.308
436.15	6.296
436.50	6.289
436.85	6.278
437.20	6.286
437.54	6.266
437.89	6.279
438.24	6.281
438.59	6.278
438.94	6.269
439.29	6.266
439.63	6.277
439.98	6.276
440.33	6.293
440.68	6.298
441.03	6.301
441.37	6.338
441.72	6.350
442.07	6.350
442.42	6.354
442.76	6.349
443.11	6.367
443.46	6.373
443.81	6.395
444.16	6.402
444.50	6.417
444.85	6.431
445.20	6.432
445.55	6.440
445.89	6.469
446.24	6.479
446.59	6.523
446.94	6.529
447.28	6.555
447.63	6.597
447.98	6.633
448.32	6.663
448.67	6.695
449.02	6.731
449.37	6.767
449.71	6.783
450.06	6.815
450.41	6.811
450.75	6.842
451.10	6.863
451.45	6.860
451.79	6.877
452.14	6.876
452.49	6.878
452.84	6.874
453.18	6.891
453.53	6.904
453.88	6.920
454.22	6.928
454.57	6.920
454.92	6.920
455.26	6.897
455.61	6.875
455.95	6.878
456.30	6.878
456.65	6.884
456.99	6.863
457.34	6.851
457.69	6.855
458.03	6.873
458.38	6.897
458.73	6.902
459.07	6.933
459.42	6.958
459.76	6.982
460.11	7.003
460.46	7.034
460.80	7.062
461.15	7.095
461.49	7.119
461.84	7.142
462.19	7.160
462.53	7.182
462.88	7.214
463.22	7.230
463.57	7.242
463.91	7.258
464.26	7.287
464.61	7.302
464.95	7.312
465.30	7.323
465.64	7.325
465.99	7.336
466.33	7.356
466.68	7.353
467.02	7.370
467.37	7.377
467.71	7.399
468.06	7.398
468.41	7.416
468.75	7.439
469.10	7.442
469.44	7.463
469.79	7.474
470.13	7.485
470.48	7.512
470.82	7.534
471.17	7.554
471.51	7.555
471.86	7.550
472.20	7.562
472.55	7.572
472.89	7.595
473.23	7.594
473.58	7.601
473.92	7.585
474.27	7.569
474.61	7.552
474.96	7.562
475.30	7.573
475.65	7.593
475.99	7.593
476.34	7.594
476.68	7.594
477.02	7.602
477.37	7.600
477.71	7.612
478.06	7.614
478.40	7.617
478.75	7.625
479.09	7.642
479.43	7.752
479.78	7.919
480.12	8.095
480.47	8.276
480.81	8.456
481.15	8.636
481.50	8.823
481.84	9.042
482.19	9.280
482.53	9.505
482.87	9.701
483.22	9.749
483.56	9.701
483.90	9.592
484.25	9.436
484.59	9.258
484.94	9.056
485.28	8.833
485.62	8.569
485.97	8.303
486.31	8.059
486.65	7.852
487.00	7.723
487.34	7.641
487.68	7.627
488.03	7.651
488.37	7.677
488.71	7.722
489.06	7.764
489.40	7.814
489.74	7.854
490.09	7.892
490.43	7.924
490.77	7.974
491.11	8.029
491.46	8.053
491.80	8.064
492.14	8.092
492.49	8.116
492.83	8.164
493.17	8.186
493.51	8.211
493.86	8.248
494.20	8.290
494.54	8.321
494.88	8.343
495.23	8.370
495.57	8.390
495.91	8.410
496.25	8.417
496.60	8.431
496.94	8.478
497.28	8.511
497.62	8.550
497.97	8.577
498.31	8.612
498.65	8.669
498.99	8.707
499.33	8.742
499.68	8.771
500.02	8.817
500.36	8.875
500.70	8.903
501.04	8.933
501.39	8.967
501.73	9.007
502.07	9.049
502.41	9.067
502.75	9.092
503.09	9.124
503.44	9.157
503.78	9.190
504.12	9.203
504.46	9.240
504.80	9.268
505.14	9.284
505.49	9.315
505.83	9.328
506.17	9.362
506.51	9.388
506.85	9.415
507.19	9.435
507.53	9.476
507.87	9.498
508.22	9.534
508.56	9.582
508.90	9.619
509.24	9.653
509.58	9.705
509.92	9.731
510.26	9.794
510.60	9.848
510.94	9.900
511.28	9.926
511.63	9.986
511.97	10.022
512.31	10.068
512.65	10.124
512.99	10.182
513.33	10.215
513.67	10.284
514.01	10.314
514.35	10.356
514.69	10.379
515.03	10.410
515.37	10.424
515.71	10.453
516.05	10.468
516.39	10.482
516.73	10.503
517.07	10.545
517.41	10.566
517.75	10.611
518.09	10.643
518.43	10.700
518.77	10.769
519.11	10.834
519.45	10.873
519.79	10.948
520.13	11.011
520.47	11.072
520.81	11.117
521.15	11.153
521.49	11.181
521.83	11.217
522.17	11.254
522.51	11.264
522.85	11.276
523.19	11.313
523.53	11.342
523.87	11.394
524.21	11.486
524.55	11.606
524.89	11.754
525.23	11.910
525.57	12.051
525.91	12.199
526.25	12.341
526.58	12.497
526.92	12.636
527.26	12.728
527.60	12.758
527.94	12.687
528.28	12.544
528.62	12.343
528.96	12.140
529.30	12.047
529.64	11.948
529.97	11.853
530.31	11.737
530.65	11.646
530.99	11.598
531.33	11.602
531.67	11.690
532.01	11.851
532.35	12.039
532.68	12.218
533.02	12.265
533.36	12.312
533.70	12.338
534.04	12.382
534.38	12.401
534.71	12.422
535.05	12.472
535.39	12.513
535.73	12.548
536.07	12.594
536.41	12.643
536.74	12.685
537.08	12.716
537.42	12.767
537.76	12.784
538.10	12.848
538.43	12.887
538.77	12.913
539.11	12.936
539.45	12.953
539.79	12.984
540.12	13.004
540.46	13.035
540.80	13.057
541.14	13.058
541.47	13.079
541.81	13.072
542.15	13.094
542.49	13.112
542.82	13.144
543.16	13.182
543.50	13.219
543.84	13.253
544.17	13.287
544.51	13.315
544.85	13.376
545.18	13.430
545.52	13.479
545.86	13.525
546.20	13.588
546.53	13.654
546.87	13.724
547.21	13.784
547.54	13.840
547.88	13.899
548.22	13.953
548.55	14.002
548.89	14.054
549.23	14.096
549.56	14.136
549.90	14.166
550.24	14.184
550.57	14.195
550.91	14.215
551.25	14.237
551.58	14.252
551.92	14.288
552.26	14.318
552.59	14.337
552.93	14.376
553.27	14.419
553.60	14.460
553.94	14.509
554.27	14.560
554.61	14.599
554.95	14.647
555.28	14.701
555.62	14.737
555.95	14.765
556.29	14.801
556.63	14.829
556.96	14.845
557.30	14.824
557.63	14.832
557.97	14.840
558.31	14.835
558.64	14.842
558.98	14.848
559.31	14.857
559.65	14.868
559.98	14.891
560.32	14.911
560.65	14.905
560.99	14.926
561.33	14.926
561.66	14.893
562.00	14.889
562.33	14.875
562.67	14.871
563.00	14.846
563.34	14.819
563.67	14.787
564.01	14.741
564.34	14.724
564.68	14.698
565.01	14.675
565.35	14.673
565.68	14.671
566.02	14.661
566.35	14.652
566.69	14.640
567.02	14.653
567.36	14.640
567.69	14.655
568.03	14.641
568.36	14.639
568.69	14.630
569.03	14.629
569.36	14.610
569.70	14.601
570.03	14.551
570.37	14.531
570.70	14.512
571.04	14.502
571.37	14.474
571.70	14.481
572.04	14.477
572.37	14.470
572.71	14.465
573.04	14.487
573.37	14.503
573.71	14.542
574.04	14.571
574.38	14.598
574.71	14.635
575.04	14.652
575.38	14.668
575.71	14.706
576.05	14.749
576.38	14.764
576.71	14.797
577.05	14.802
577.38	14.826
577.71	14.862
578.05	14.855
578.38	14.877
578.71	14.914
579.05	14.930
579.38	14.950
579.71	14.957
580.05	14.978
580.38	14.965
580.71	14.979
581.05	14.987
581.38	15.001
581.71	15.053
582.05	15.047
582.38	15.043
582.71	15.069
583.04	15.090
583.38	15.101
583.71	15.094
584.04	15.109
584.38	15.144
584.71	15.144
585.04	15.113
585.37	15.079
585.71	15.100
586.04	15.117
586.37	15.096
586.70	15.068
587.04	15.080
587.37	15.097
587.70	15.092
588.03	15.110
588.37	15.143
588.70	15.182
589.03	15.230
589.36	15.258
589.69	15.244
590.03	15.276
590.36	15.316
590.69	15.339
591.02	15.365
591.35	15.381
591.69	15.371
592.02	15.349
592.35	15.337
592.68	15.310
593.01	15.262
593.35	15.299
593.68	15.311
594.01	15.290
594.34	15.250
594.67	15.254
595.00	15.240
595.34	15.246
595.67	15.254
596.00	15.282
596.33	15.322
596.66	15.372
596.99	15.367
597.32	15.383
597.65	15.420
597.99	15.490
598.32	15.521
598.65	15.587
598.98	15.622
599.31	15.631
599.64	15.618
599.97	15.606
600.30	15.565
600.63	15.571
600.96	15.553
601.30	15.543
601.63	15.522
601.96	15.472
602.29	15.428
602.62	15.414
602.95	15.437
603.28	15.427
603.61	15.424
603.94	15.468
604.27	15.467
604.60	15.471
604.93	15.473
605.26	15.465
605.59	15.511
605.92	15.567
606.25	15.583
606.58	15.597
606.91	15.645
607.24	15.639
607.57	15.646
607.90	15.646
608.23	15.644
608.56	15.685
608.89	15.703
609.22	15.703
609.55	15.697
609.88	15.728
610.21	15.764
610.54	15.798
610.87	15.875
611.20	15.936
611.53	15.980
611.86	16.038
612.19	16.063
612.52	16.102
612.85	16.147
613.18	16.161
613.51	16.159
613.84	16.168
614.17	16.147
614.49	16.100
614.82	16.047
615.15	16.070
615.48	16.045
615.81	16.036
616.14	16.064
616.47	16.060
616.80	16.064
617.13	16.081
617.46	16.063
617.78	16.098
618.11	16.141
618.44	16.186
618.77	16.209
619.10	16.243
619.43	16.273
619.76	16.297
620.09	16.321
620.41	16.345
620.74	16.357
621.07	16.369
621.40	16.371
621.73	16.379
622.06	16.369
622.38	16.357
622.71	16.349
623.04	16.341
623.37	16.306
623.70	16.311
624.02	16.258
624.35	16.215
624.68	16.201
625.01	16.185
625.34	16.186
625.66	16.149
625.99	16.133
626.32	16.166
626.65	16.160
626.98	16.156
627.30	16.160
627.63	16.231
627.96	16.282
628.29	16.336
628.61	16.327
628.94	16.311
629.27	16.348
629.60	16.388
629.92	16.382
630.25	16.401
630.58	16.427
630.91	16.422
631.23	16.406
631.56	16.365
631.89	16.316
632.21	16.349
632.54	16.379
632.87	16.377
633.19	16.369
633.52	16.371
633.85	16.364
634.18	16.371
634.50	16.364
634.83	16.335
635.16	16.346
635.48	16.333
635.81	16.325
636.14	16.314
636.46	16.299
636.79	16.297
637.11	16.289
637.44	16.277
637.77	16.213
638.09	16.185
638.42	16.154
638.75	16.141
639.07	16.135
639.40	16.093
639.73	16.023
640.05	15.993
640.38	15.945
640.70	15.887
641.03	15.842
641.36	15.869
641.68	15.865
642.01	15.878
642.33	15.862
642.66	15.838
642.98	15.828
643.31	15.814
643.64	15.822
643.96	15.766
644.29	15.729
644.61	15.714
644.94	15.656
645.26	15.583
645.59	15.567
645.91	15.513
646.24	15.518
646.56	15.451
646.89	15.402
647.22	15.311
647.54	15.320
647.87	15.292
648.19	15.271
648.52	15.276
648.84	15.280
649.17	15.252
649.49	15.210
649.82	15.179
650.14	15.219
