OOIBase32 Version 2.0.0.6 Data File
++++++++++++++++++++++++++++++++++++
Date: 01-19-2012, 15:18:51
User: Valued Ocean Optics Customer
Spectrometer Serial Number: USB2E2917
Spectrometer Channel: Master
Integration Time (msec): 5
Spectra Averaged: 10
Boxcar Smoothing: 5
Correct for Electrical Dark: Enabled
Time Normalized: Disabled
Dual-beam Reference: Disabled
Reference Channel: Master
Temperature: Not acquired
Spectrometer Type: S2000
ADC Type: USB2000
Number of Pixels in File: 2048
Graph Title: 
>>>>>Begin Spectral Data<<<<<
180.30	0.000
180.67	0.000
181.03	5794.904
181.40	148.082
181.77	35.979
182.14	48.270
182.51	428.506
182.88	79.551
183.25	-1.081
183.62	-332.031
183.99	-92.901
184.36	115.458
184.73	852.775
185.10	-55.947
185.46	-0.767
185.83	-16.429
186.20	-410.731
186.57	-15.105
186.94	848.028
187.31	-0.207
187.68	-498.475
188.05	-55.815
188.42	-46.674
188.78	-5.602
189.15	4.525
189.52	18.296
189.89	58.691
190.26	48.367
190.63	32.005
191.00	34.059
191.37	16.521
191.73	6.669
192.10	-16.056
192.47	-33.346
192.84	-52.687
193.21	-86.444
193.58	-78.327
193.94	-94.647
194.31	-97.413
194.68	-69.127
195.05	-84.244
195.42	-90.470
195.79	-35.932
196.15	-8.679
196.52	9.118
196.89	3.927
197.26	5.767
197.63	-7.316
198.00	5.931
198.36	5.601
198.73	11.226
199.10	5.772
199.47	16.038
199.84	-0.891
200.20	-13.449
200.57	-10.537
200.94	2.501
201.31	-8.149
201.68	-2.613
202.04	-1.746
202.41	-15.775
202.78	-35.859
203.15	-51.450
203.51	-62.661
203.88	-86.133
204.25	-80.070
204.62	-78.238
204.98	-97.722
205.35	-116.606
205.72	-68.955
206.09	-106.003
206.46	-49.681
206.82	-59.369
207.19	-19.435
207.56	-31.226
207.92	-31.488
208.29	-52.538
208.66	-77.398
209.03	-106.884
209.39	-81.966
209.76	-132.063
210.13	-115.287
210.50	-115.851
210.86	-87.642
211.23	-72.663
211.60	-78.963
211.96	-66.034
212.33	-25.124
212.70	-27.929
213.07	-1.114
213.43	-4.688
213.80	-2.256
214.17	0.897
214.53	13.927
214.90	14.303
215.27	-0.435
215.63	14.306
216.00	10.317
216.37	0.334
216.74	18.294
217.10	6.539
217.47	16.146
217.84	18.023
218.20	13.973
218.57	-0.914
218.94	-8.211
219.30	-2.090
219.67	-7.087
220.04	0.506
220.40	4.181
220.77	9.270
221.13	11.990
221.50	10.186
221.87	9.733
222.23	8.302
222.60	8.009
222.97	10.785
223.33	10.152
223.70	9.807
224.07	9.666
224.43	7.074
224.80	5.471
225.16	6.545
225.53	8.033
225.90	6.187
226.26	6.220
226.63	7.413
226.99	6.594
227.36	5.480
227.73	5.892
228.09	6.591
228.46	6.338
228.82	6.437
229.19	4.642
229.56	2.268
229.92	3.083
230.29	4.332
230.65	2.652
231.02	2.307
231.38	2.636
231.75	-0.051
232.12	-1.528
232.48	-1.338
232.85	-2.779
233.21	-2.338
233.58	-0.341
233.94	-1.466
234.31	-2.501
234.68	-0.635
235.04	0.540
235.41	1.909
235.77	5.132
236.14	6.152
236.50	5.952
236.87	6.335
237.23	6.963
237.60	7.240
237.96	7.607
238.33	6.839
238.69	6.838
239.06	6.344
239.42	5.558
239.79	4.650
240.15	4.596
240.52	5.383
240.88	5.520
241.25	5.783
241.61	5.545
241.98	5.636
242.34	6.133
242.71	5.930
243.07	5.945
243.44	6.040
243.80	6.255
244.17	6.195
244.53	6.003
244.90	5.943
245.26	5.721
245.63	5.811
245.99	5.869
246.36	5.695
246.72	5.520
247.09	5.688
247.45	5.825
247.81	5.930
248.18	6.013
248.54	6.187
248.91	6.364
249.27	6.555
249.64	6.239
250.00	6.439
250.36	6.839
250.73	7.212
251.09	7.111
251.46	7.050
251.82	6.736
252.19	6.328
252.55	5.650
252.91	5.338
253.28	4.933
253.64	5.457
254.01	4.885
254.37	4.153
254.73	4.314
255.10	4.285
255.46	4.186
255.83	4.380
256.19	4.441
256.55	4.962
256.92	5.069
257.28	5.200
257.65	5.047
258.01	5.149
258.37	5.081
258.74	4.936
259.10	4.883
259.46	4.874
259.83	4.736
260.19	4.817
260.55	4.423
260.92	4.277
261.28	4.076
261.64	3.912
262.01	3.694
262.37	3.833
262.73	3.856
263.10	3.767
263.46	3.402
263.82	3.348
264.19	3.145
264.55	3.749
264.91	3.662
265.28	3.813
265.64	3.838
266.00	4.102
266.37	4.123
266.73	4.074
267.09	4.424
267.46	4.786
267.82	4.804
268.18	4.786
268.54	4.517
268.91	4.901
269.27	4.838
269.63	4.951
270.00	4.793
270.36	4.895
270.72	5.033
271.08	4.793
271.45	4.798
271.81	4.705
272.17	4.710
272.53	4.803
272.90	4.787
273.26	4.926
273.62	4.834
273.98	5.020
274.35	4.814
274.71	4.414
275.07	4.378
275.43	4.374
275.80	4.547
276.16	4.270
276.52	4.273
276.88	4.242
277.25	4.173
277.61	4.422
277.97	4.256
278.33	4.424
278.69	4.696
279.06	4.753
279.42	4.636
279.78	4.484
280.14	4.814
280.50	4.748
280.87	4.575
281.23	4.424
281.59	4.308
281.95	4.287
282.31	4.336
282.68	4.301
283.04	4.200
283.40	4.217
283.76	4.366
284.12	4.415
284.48	4.461
284.85	4.521
285.21	4.648
285.57	4.562
285.93	4.712
286.29	4.741
286.65	4.575
287.02	4.737
287.38	4.777
287.74	4.830
288.10	5.038
288.46	5.138
288.82	4.979
289.18	4.668
289.54	4.773
289.91	4.719
290.27	4.694
290.63	4.854
290.99	4.987
291.35	5.079
291.71	5.055
292.07	4.783
292.43	4.713
292.79	4.943
293.16	5.180
293.52	5.202
293.88	4.948
294.24	4.818
294.60	4.753
294.96	4.588
295.32	4.599
295.68	4.596
296.04	4.541
296.40	4.458
296.76	4.357
297.12	4.461
297.49	4.455
297.85	4.563
298.21	4.637
298.57	4.634
298.93	4.849
299.29	4.688
299.65	4.774
300.01	4.857
300.37	4.964
300.73	5.149
301.09	5.086
301.45	5.094
301.81	5.202
302.17	5.116
302.53	5.201
302.89	5.167
303.25	5.231
303.61	5.252
303.97	5.358
304.33	5.294
304.69	5.166
305.05	5.281
305.41	5.265
305.77	5.061
306.13	5.154
306.49	5.108
306.85	4.793
307.21	4.790
307.57	4.638
307.93	4.516
308.29	4.581
308.65	4.474
309.01	4.274
309.37	4.180
309.73	4.082
310.09	4.108
310.45	4.086
310.81	4.176
311.17	4.092
311.53	3.987
311.89	3.866
312.25	3.532
312.61	3.500
312.96	3.438
313.32	3.426
313.68	3.464
314.04	3.286
314.40	3.115
314.76	3.091
315.12	2.966
315.48	2.875
315.84	2.771
316.20	2.868
316.56	2.772
316.92	2.686
317.27	2.387
317.63	2.312
317.99	2.111
318.35	2.043
318.71	1.836
319.07	1.699
319.43	1.790
319.79	1.717
320.15	1.669
320.50	1.631
320.86	1.514
321.22	1.508
321.58	1.343
321.94	1.348
322.30	1.250
322.66	1.202
323.01	1.260
323.37	1.016
323.73	0.982
324.09	0.854
324.45	0.632
324.81	0.580
325.17	0.577
325.52	0.598
325.88	0.437
326.24	0.330
326.60	0.292
326.96	0.116
327.31	0.083
327.67	0.008
328.03	-0.031
328.39	0.057
328.75	0.132
329.11	0.089
329.46	0.115
329.82	0.271
330.18	0.445
330.54	0.513
330.90	0.698
331.25	0.766
331.61	0.907
331.97	1.039
332.33	1.099
332.68	1.084
333.04	1.102
333.40	1.157
333.76	1.180
334.11	1.258
334.47	1.241
334.83	1.253
335.19	1.278
335.54	1.161
335.90	1.133
336.26	1.031
336.62	1.002
336.97	1.032
337.33	1.078
337.69	0.889
338.05	0.710
338.40	0.609
338.76	0.555
339.12	0.546
339.48	0.578
339.83	0.650
340.19	0.723
340.55	0.802
340.90	0.760
341.26	0.698
341.62	0.819
341.97	0.952
342.33	1.038
342.69	1.004
343.04	1.075
343.40	1.133
343.76	1.096
344.12	1.122
344.47	1.101
344.83	1.185
345.19	1.219
345.54	1.306
345.90	1.277
346.26	1.184
346.61	1.198
346.97	1.145
347.32	1.152
347.68	1.034
348.04	1.015
348.39	0.876
348.75	0.787
349.11	0.747
349.46	0.670
349.82	0.577
350.18	0.676
350.53	0.625
350.89	0.479
351.24	0.355
351.60	0.492
351.96	0.422
352.31	0.532
352.67	0.549
353.02	0.537
353.38	0.542
353.74	0.666
354.09	0.663
354.45	0.925
354.80	1.170
355.16	1.340
355.52	1.374
355.87	1.584
356.23	1.701
356.58	1.895
356.94	1.906
357.29	1.980
357.65	1.989
358.00	2.092
358.36	2.011
358.72	1.951
359.07	1.980
359.43	1.959
359.78	1.934
360.14	1.870
360.49	1.779
360.85	1.741
361.20	1.698
361.56	1.655
361.91	1.557
362.27	1.478
362.62	1.452
362.98	1.342
363.33	1.297
363.69	1.141
364.04	1.032
364.40	0.925
364.75	0.936
365.11	0.867
365.46	0.822
365.82	0.760
366.17	0.795
366.53	0.728
366.88	0.773
367.24	0.787
367.59	0.972
367.95	1.079
368.30	1.150
368.66	1.204
369.01	1.310
369.37	1.476
369.72	1.638
370.08	1.631
370.43	1.707
370.78	1.722
371.14	1.745
371.49	1.666
371.85	1.720
372.20	1.767
372.56	1.848
372.91	1.816
373.26	1.731
373.62	1.588
373.97	1.559
374.33	1.529
374.68	1.440
375.03	1.408
375.39	1.332
375.74	1.244
376.10	1.205
376.45	1.123
376.80	1.107
377.16	1.148
377.51	1.231
377.87	1.351
378.22	1.509
378.57	1.670
378.93	1.830
379.28	1.996
379.63	2.182
379.99	2.339
380.34	2.495
380.70	2.693
381.05	2.782
381.40	2.859
381.76	2.892
382.11	2.845
382.46	2.825
382.82	2.804
383.17	2.778
383.52	2.740
383.88	2.707
384.23	2.638
384.58	2.610
384.94	2.573
385.29	2.562
385.64	2.582
385.99	2.622
386.35	2.651
386.70	2.578
387.05	2.540
387.41	2.458
387.76	2.411
388.11	2.409
388.47	2.376
388.82	2.420
389.17	2.466
389.52	2.431
389.88	2.456
390.23	2.504
390.58	2.609
390.93	2.716
391.29	2.819
391.64	2.860
391.99	2.906
392.34	2.880
392.70	2.817
393.05	2.824
393.40	2.801
393.75	2.705
394.11	2.621
394.46	2.549
394.81	2.417
395.16	2.283
395.52	2.157
395.87	1.968
396.22	1.786
396.57	1.622
396.92	1.330
397.28	1.141
397.63	0.951
397.98	0.748
398.33	0.524
398.68	0.365
399.04	0.227
399.39	0.090
399.74	0.019
400.09	0.027
400.44	0.000
400.80	0.050
401.15	0.098
401.50	0.169
401.85	0.215
402.20	0.276
402.55	0.337
402.90	0.395
403.26	0.485
403.61	0.505
403.96	0.500
404.31	0.513
404.66	0.525
405.01	0.483
405.36	0.435
405.72	0.390
406.07	0.346
406.42	0.266
406.77	0.192
407.12	0.087
407.47	0.068
407.82	0.034
408.17	0.022
408.53	-0.043
408.88	-0.095
409.23	-0.135
409.58	-0.188
409.93	-0.227
410.28	-0.224
410.63	-0.240
410.98	-0.274
411.33	-0.291
411.68	-0.281
412.03	-0.298
412.38	-0.229
412.73	-0.137
413.09	0.023
413.44	0.216
413.79	0.400
414.14	0.583
414.49	0.793
414.84	1.017
415.19	1.202
415.54	1.380
415.89	1.610
416.24	1.797
416.59	1.991
416.94	2.116
417.29	2.221
417.64	2.331
417.99	2.422
418.34	2.490
418.69	2.567
419.04	2.645
419.39	2.693
419.74	2.725
420.09	2.747
420.44	2.759
420.79	2.768
421.14	2.766
421.49	2.754
421.84	2.733
422.19	2.720
422.54	2.678
422.89	2.625
423.24	2.561
423.59	2.491
423.94	2.395
424.29	2.261
424.64	2.153
424.99	2.043
425.34	1.920
425.68	1.795
426.03	1.669
426.38	1.553
426.73	1.466
427.08	1.416
427.43	1.369
427.78	1.373
428.13	1.419
428.48	1.449
428.83	1.465
429.18	1.517
429.53	1.567
429.87	1.623
430.22	1.670
430.57	1.694
430.92	1.691
431.27	1.690
431.62	1.675
431.97	1.642
432.32	1.571
432.67	1.538
433.01	1.457
433.36	1.385
433.71	1.301
434.06	1.229
434.41	1.178
434.76	1.169
435.11	1.160
435.45	1.185
435.80	1.234
436.15	1.335
436.50	1.398
436.85	1.491
437.20	1.554
437.54	1.606
437.89	1.656
438.24	1.692
438.59	1.682
438.94	1.672
439.29	1.614
439.63	1.539
439.98	1.457
440.33	1.394
440.68	1.352
441.03	1.341
441.37	1.357
441.72	1.392
442.07	1.395
442.42	1.451
442.76	1.513
443.11	1.621
443.46	1.726
443.81	1.803
444.16	1.874
444.50	1.904
444.85	1.906
445.20	1.869
445.55	1.803
445.89	1.743
446.24	1.637
446.59	1.503
446.94	1.349
447.28	1.184
447.63	1.007
447.98	0.819
448.32	0.652
448.67	0.490
449.02	0.360
449.37	0.246
449.71	0.209
450.06	0.194
450.41	0.233
450.75	0.233
451.10	0.244
451.45	0.262
451.79	0.276
452.14	0.270
452.49	0.285
452.84	0.269
453.18	0.266
453.53	0.236
453.88	0.234
454.22	0.240
454.57	0.314
454.92	0.394
455.26	0.528
455.61	0.665
455.95	0.807
456.30	0.936
456.65	1.089
456.99	1.222
457.34	1.349
457.69	1.459
458.03	1.512
458.38	1.526
458.73	1.520
459.07	1.445
459.42	1.371
459.76	1.260
460.11	1.140
460.46	0.995
460.80	0.841
461.15	0.672
461.49	0.488
461.84	0.357
462.19	0.255
462.53	0.172
462.88	0.145
463.22	0.142
463.57	0.149
463.91	0.188
464.26	0.232
464.61	0.272
464.95	0.322
465.30	0.358
465.64	0.365
465.99	0.362
466.33	0.354
466.68	0.335
467.02	0.289
467.37	0.261
467.71	0.220
468.06	0.189
468.41	0.149
468.75	0.084
469.10	0.035
469.44	-0.038
469.79	-0.102
470.13	-0.175
470.48	-0.244
470.82	-0.294
471.17	-0.351
471.51	-0.414
471.86	-0.457
472.20	-0.506
472.55	-0.554
472.89	-0.595
473.23	-0.617
473.58	-0.636
473.92	-0.655
474.27	-0.674
474.61	-0.681
474.96	-0.672
475.30	-0.666
475.65	-0.697
475.99	-0.700
476.34	-0.661
476.68	-0.629
477.02	-0.605
477.37	-0.545
477.71	-0.436
478.06	-0.281
478.40	-0.006
478.75	0.383
479.09	0.812
479.43	1.252
479.78	1.680
480.12	2.036
480.47	2.401
480.81	2.729
481.15	3.014
481.50	3.279
481.84	3.536
482.19	3.766
482.53	3.953
482.87	4.070
483.22	4.128
483.56	4.102
483.90	4.040
484.25	3.922
484.59	3.789
484.94	3.644
485.28	3.513
485.62	3.354
485.97	3.153
486.31	2.955
486.65	2.802
487.00	2.669
487.34	2.584
487.68	2.517
488.03	2.467
488.37	2.423
488.71	2.387
489.06	2.314
489.40	2.243
489.74	2.183
490.09	2.103
490.43	1.996
490.77	1.888
491.11	1.744
491.46	1.590
491.80	1.412
492.14	1.242
492.49	1.046
492.83	0.863
493.17	0.688
493.51	0.516
493.86	0.358
494.20	0.222
494.54	0.140
494.88	0.152
495.23	0.176
495.57	0.226
495.91	0.275
496.25	0.343
496.60	0.386
496.94	0.428
497.28	0.445
497.62	0.447
497.97	0.456
498.31	0.449
498.65	0.428
498.99	0.450
499.33	0.466
499.68	0.488
500.02	0.503
500.36	0.536
500.70	0.572
501.04	0.635
501.39	0.715
501.73	0.809
502.07	0.923
502.41	1.042
502.75	1.160
503.09	1.313
503.44	1.490
503.78	1.658
504.12	1.853
504.46	2.043
504.80	2.246
505.14	2.479
505.49	2.699
505.83	2.904
506.17	3.124
506.51	3.315
506.85	3.523
507.19	3.724
507.53	3.938
507.87	4.125
508.22	4.313
508.56	4.476
508.90	4.616
509.24	4.779
509.58	4.935
509.92	5.090
510.26	5.258
510.60	5.404
510.94	5.548
511.28	5.691
511.63	5.865
511.97	6.034
512.31	6.235
512.65	6.470
512.99	6.721
513.33	7.060
513.67	7.390
514.01	7.768
514.35	8.159
514.69	8.564
515.03	8.967
515.37	9.339
515.71	9.701
516.05	10.038
516.39	10.341
516.73	10.578
517.07	10.771
517.41	10.938
517.75	11.050
518.09	11.108
518.43	11.141
518.77	11.148
519.11	11.165
519.45	11.143
519.79	11.165
520.13	11.209
520.47	11.345
520.81	11.511
521.15	11.711
521.49	11.965
521.83	12.282
522.17	12.622
522.51	13.029
522.85	13.458
523.19	14.070
523.53	14.746
523.87	15.468
524.21	16.161
524.55	16.775
524.89	17.336
525.23	17.844
525.57	18.315
525.91	18.720
526.25	19.094
526.58	19.421
526.92	19.669
527.26	19.841
527.60	19.928
527.94	19.960
528.28	19.973
528.62	19.966
528.96	19.938
529.30	19.883
529.64	19.833
529.97	19.759
530.31	19.670
530.65	19.583
530.99	19.525
531.33	19.505
531.67	19.506
532.01	19.549
532.35	19.558
532.68	19.551
533.02	19.527
533.36	19.491
533.70	19.429
534.04	19.389
534.38	19.304
534.71	19.207
535.05	19.114
535.39	19.033
535.73	18.942
536.07	18.975
536.41	19.095
536.74	19.298
537.08	19.544
537.42	19.837
537.76	20.175
538.10	20.541
538.43	20.908
538.77	21.244
539.11	21.531
539.45	21.829
539.79	22.014
540.12	22.165
540.46	22.242
540.80	22.258
541.14	22.248
541.47	22.162
541.81	22.059
542.15	21.917
542.49	21.757
542.82	21.589
543.16	21.364
543.50	21.163
543.84	20.938
544.17	20.742
544.51	20.624
544.85	20.475
545.18	20.367
545.52	20.215
545.86	20.040
546.20	19.871
546.53	19.716
546.87	19.547
547.21	19.380
547.54	19.242
547.88	19.111
548.22	18.953
548.55	18.874
548.89	18.796
549.23	18.780
549.56	18.825
549.90	18.863
550.24	18.911
550.57	18.970
550.91	19.053
551.25	19.108
551.58	19.182
551.92	19.255
552.26	19.263
552.59	19.275
552.93	19.277
553.27	19.224
553.60	19.210
553.94	19.152
554.27	19.164
554.61	19.141
554.95	19.163
555.28	19.145
555.62	19.135
555.95	19.188
556.29	19.249
556.63	19.324
556.96	19.413
557.30	19.524
557.63	19.623
557.97	19.648
558.31	19.758
558.64	19.784
558.98	19.877
559.31	19.949
559.65	19.970
559.98	20.008
560.32	20.066
560.65	20.152
560.99	20.223
561.33	20.314
561.66	20.450
562.00	20.577
562.33	20.763
562.67	20.876
563.00	21.016
563.34	21.203
563.67	21.361
564.01	21.502
564.34	21.651
564.68	21.744
565.01	21.844
565.35	21.878
565.68	21.915
566.02	21.934
566.35	21.989
566.69	22.039
567.02	22.060
567.36	22.108
567.69	22.143
568.03	22.154
568.36	22.215
568.69	22.299
569.03	22.410
569.36	22.477
569.70	22.557
570.03	22.650
570.37	22.744
570.70	22.809
571.04	22.859
571.37	22.897
571.70	22.918
572.04	22.925
572.37	22.902
572.71	22.878
573.04	22.883
573.37	22.840
573.71	22.767
574.04	22.651
574.38	22.581
574.71	22.474
575.04	22.380
575.38	22.278
575.71	22.158
576.05	22.047
576.38	21.936
576.71	21.792
577.05	21.654
577.38	21.528
577.71	21.427
578.05	21.303
578.38	21.202
578.71	21.077
579.05	21.009
579.38	20.931
579.71	20.855
580.05	20.794
580.38	20.740
580.71	20.702
581.05	20.648
581.38	20.628
581.71	20.627
582.05	20.596
582.38	20.604
582.71	20.567
583.04	20.559
583.38	20.558
583.71	20.590
584.04	20.607
584.38	20.655
584.71	20.769
585.04	20.796
585.37	20.836
585.71	20.934
586.04	21.037
586.37	21.126
586.70	21.194
587.04	21.301
587.37	21.324
587.70	21.324
588.03	21.337
588.37	21.304
588.70	21.267
589.03	21.219
589.36	21.116
589.69	21.046
590.03	20.961
590.36	20.893
590.69	20.794
591.02	20.726
591.35	20.706
591.69	20.681
592.02	20.664
592.35	20.720
592.68	20.772
593.01	20.833
593.35	20.840
593.68	20.920
594.01	20.973
594.34	20.998
594.67	21.003
595.00	21.010
595.34	20.991
595.67	20.965
596.00	20.896
596.33	20.784
596.66	20.654
596.99	20.508
597.32	20.327
597.65	20.153
597.99	20.013
598.32	19.882
598.65	19.754
598.98	19.623
599.31	19.533
599.64	19.491
599.97	19.504
600.30	19.550
600.63	19.624
600.96	19.704
601.30	19.771
601.63	19.831
601.96	19.888
602.29	19.908
602.62	19.910
602.95	19.916
603.28	19.891
603.61	19.852
603.94	19.791
604.27	19.682
604.60	19.578
604.93	19.476
605.26	19.387
605.59	19.307
605.92	19.224
606.25	19.158
606.58	19.080
606.91	19.037
607.24	18.980
607.57	18.980
607.90	18.994
608.23	18.984
608.56	18.925
608.89	18.842
609.22	18.729
609.55	18.621
609.88	18.503
610.21	18.328
610.54	18.162
610.87	17.983
611.20	17.787
611.53	17.615
611.86	17.462
612.19	17.319
612.52	17.187
612.85	17.111
613.18	17.057
613.51	16.997
613.84	16.942
614.17	16.876
614.49	16.845
614.82	16.773
615.15	16.714
615.48	16.623
615.81	16.596
616.14	16.577
616.47	16.534
616.80	16.432
617.13	16.436
617.46	16.385
617.78	16.357
618.11	16.323
618.44	16.272
618.77	16.191
619.10	16.182
619.43	16.173
619.76	16.119
620.09	16.089
620.41	16.105
620.74	16.069
621.07	16.036
621.40	16.082
621.73	16.082
622.06	16.135
622.38	16.222
622.71	16.251
623.04	16.276
623.37	16.315
623.70	16.398
624.02	16.422
624.35	16.442
624.68	16.561
625.01	16.554
625.34	16.570
625.66	16.580
625.99	16.541
626.32	16.554
626.65	16.493
626.98	16.491
627.30	16.424
627.63	16.341
627.96	16.217
628.29	16.122
628.61	16.036
628.94	15.920
629.27	15.895
629.60	15.811
629.92	15.694
630.25	15.665
630.58	15.590
630.91	15.510
631.23	15.502
631.56	15.518
631.89	15.448
632.21	15.410
632.54	15.441
632.87	15.350
633.19	15.305
633.52	15.270
633.85	15.212
634.18	15.129
634.50	15.082
634.83	15.000
635.16	14.933
635.48	14.840
635.81	14.760
636.14	14.647
636.46	14.533
636.79	14.490
637.11	14.401
637.44	14.339
637.77	14.279
638.09	14.233
638.42	14.197
638.75	14.155
639.07	14.141
639.40	14.032
639.73	13.970
640.05	13.933
640.38	13.916
640.70	13.883
641.03	13.842
641.36	13.809
641.68	13.738
642.01	13.692
642.33	13.654
642.66	13.663
642.98	13.769
643.31	13.850
643.64	13.898
643.96	13.936
644.29	13.982
644.61	14.027
644.94	14.078
645.26	14.190
645.59	14.283
645.91	14.364
646.24	14.418
646.56	14.392
646.89	14.354
647.22	14.320
647.54	14.334
647.87	14.394
648.19	14.394
648.52	14.399
648.84	14.347
649.17	14.308
