OOIBase32 Version 2.0.0.6 Data File
++++++++++++++++++++++++++++++++++++
Date: 01-22-2012, 22:07:21
User: Valued Ocean Optics Customer
Spectrometer Serial Number: USB2E2917
Spectrometer Channel: Master
Integration Time (msec): 4
Spectra Averaged: 10
Boxcar Smoothing: 5
Correct for Electrical Dark: Enabled
Time Normalized: Disabled
Dual-beam Reference: Disabled
Reference Channel: Master
Temperature: Not acquired
Spectrometer Type: S2000
ADC Type: USB2000
Number of Pixels in File: 2048
Graph Title: 
>>>>>Begin Spectral Data<<<<<
180.30	0.000
180.67	0.000
181.03	28.012
181.40	3.347
181.77	432.040
182.14	41.334
182.51	69.368
182.88	94.481
183.25	27.989
183.62	81.010
183.99	93.362
184.36	-131.162
184.73	114.123
185.10	-1298.010
185.46	226.052
185.83	-757.605
186.20	-69.843
186.57	-3405.982
186.94	97.537
187.31	-113.073
187.68	-85.587
188.05	131.067
188.42	204.127
188.78	-539.736
189.15	-78.134
189.52	-123.989
189.89	-216.176
190.26	-179.250
190.63	-85.260
191.00	-46.864
191.37	-55.022
191.73	-132.394
192.10	-68.746
192.47	-25.672
192.84	-6.822
193.21	-3.725
193.58	24.926
193.94	48.354
194.31	42.312
194.68	43.787
195.05	54.037
195.42	74.060
195.79	80.610
196.15	83.566
196.52	56.177
196.89	49.959
197.26	45.242
197.63	34.858
198.00	26.055
198.36	8.411
198.73	-54.852
199.10	-110.533
199.47	-27.398
199.84	-49.496
200.20	-43.730
200.57	-59.573
200.94	-63.904
201.31	-49.592
201.68	-81.047
202.04	-46.515
202.41	-50.161
202.78	-19.660
203.15	-23.148
203.51	-18.385
203.88	-3.096
204.25	9.138
204.62	12.159
204.98	22.565
205.35	27.408
205.72	42.343
206.09	36.339
206.46	30.372
206.82	17.282
207.19	0.727
207.56	-17.332
207.92	-0.409
208.29	15.502
208.66	24.284
209.03	27.982
209.39	25.277
209.76	24.315
210.13	-0.379
210.50	17.033
210.86	22.953
211.23	46.696
211.60	71.060
211.96	64.914
212.33	40.202
212.70	58.749
213.07	32.134
213.43	35.235
213.80	9.625
214.17	37.272
214.53	26.339
214.90	26.260
215.27	14.704
215.63	8.674
216.00	-0.353
216.37	10.377
216.74	5.091
217.10	15.939
217.47	22.460
217.84	45.172
218.20	45.659
218.57	48.219
218.94	20.597
219.30	17.882
219.67	11.523
220.04	33.168
220.40	20.366
220.77	18.156
221.13	13.636
221.50	1.443
221.87	-10.021
222.23	-9.885
222.60	-11.231
222.97	3.463
223.33	-3.283
223.70	9.861
224.07	-2.141
224.43	-0.180
224.80	-4.627
225.16	-1.058
225.53	3.747
225.90	2.694
226.26	3.263
226.63	5.505
226.99	3.426
227.36	5.941
227.73	2.382
228.09	3.452
228.46	4.539
228.82	5.540
229.19	1.748
229.56	0.161
229.92	1.365
230.29	3.295
230.65	4.063
231.02	7.486
231.38	3.684
231.75	5.099
232.12	6.174
232.48	7.072
232.85	7.931
233.21	11.182
233.58	12.913
233.94	12.584
234.31	10.039
234.68	7.977
235.04	5.268
235.41	9.711
235.77	8.413
236.14	8.883
236.50	4.603
236.87	4.153
237.23	3.640
237.60	3.605
237.96	2.822
238.33	2.050
238.69	1.208
239.06	2.224
239.42	1.307
239.79	2.161
240.15	2.373
240.52	4.323
240.88	4.421
241.25	4.695
241.61	3.985
241.98	3.843
242.34	3.958
242.71	4.306
243.07	4.328
243.44	4.439
243.80	4.589
244.17	4.812
244.53	4.284
244.90	4.502
245.26	4.315
245.63	4.745
245.99	5.163
246.36	5.398
246.72	5.260
247.09	5.100
247.45	5.547
247.81	5.445
248.18	5.336
248.54	5.808
248.91	6.584
249.27	6.747
249.64	6.398
250.00	6.293
250.36	6.369
250.73	6.802
251.09	6.754
251.46	6.636
251.82	7.178
252.19	6.567
252.55	6.205
252.91	5.082
253.28	4.345
253.64	4.822
254.01	4.645
254.37	5.476
254.73	5.411
255.10	5.643
255.46	5.316
255.83	4.554
256.19	5.004
256.55	5.061
256.92	4.547
257.28	5.121
257.65	4.687
258.01	4.500
258.37	3.965
258.74	3.654
259.10	3.273
259.46	3.119
259.83	3.068
260.19	2.856
260.55	2.862
260.92	3.320
261.28	2.718
261.64	3.048
262.01	3.289
262.37	3.479
262.73	3.686
263.10	4.407
263.46	4.754
263.82	5.181
264.19	5.173
264.55	5.426
264.91	5.075
265.28	5.390
265.64	5.424
266.00	5.639
266.37	5.456
266.73	5.205
267.09	4.792
267.46	4.368
267.82	4.010
268.18	4.331
268.54	4.178
268.91	4.489
269.27	4.623
269.63	4.561
270.00	4.317
270.36	4.519
270.72	5.171
271.08	5.493
271.45	5.734
271.81	5.922
272.17	5.417
272.53	5.158
272.90	5.061
273.26	5.339
273.62	5.002
273.98	5.262
274.35	4.812
274.71	4.629
275.07	4.766
275.43	4.922
275.80	5.085
276.16	5.481
276.52	5.291
276.88	5.293
277.25	4.779
277.61	4.944
277.97	4.362
278.33	4.726
278.69	4.679
279.06	4.444
279.42	4.231
279.78	4.367
280.14	4.152
280.50	4.486
280.87	4.368
281.23	4.363
281.59	4.463
281.95	4.689
282.31	4.647
282.68	4.507
283.04	4.441
283.40	4.393
283.76	4.133
284.12	4.091
284.48	3.999
284.85	4.127
285.21	4.257
285.57	4.195
285.93	4.269
286.29	4.021
286.65	4.224
287.02	4.366
287.38	4.391
287.74	4.376
288.10	4.383
288.46	4.378
288.82	4.066
289.18	4.106
289.54	4.205
289.91	4.103
290.27	4.364
290.63	4.170
290.99	4.108
291.35	4.094
291.71	4.194
292.07	4.305
292.43	4.194
292.79	4.160
293.16	3.870
293.52	4.044
293.88	3.991
294.24	4.040
294.60	4.065
294.96	3.969
295.32	3.915
295.68	3.941
296.04	3.684
296.40	3.895
296.76	4.107
297.12	4.188
297.49	3.986
297.85	4.059
298.21	3.924
298.57	4.145
298.93	4.254
299.29	4.263
299.65	4.296
300.01	4.474
300.37	4.242
300.73	4.293
301.09	4.424
301.45	4.621
301.81	4.616
302.17	4.765
302.53	4.625
302.89	4.559
303.25	4.733
303.61	4.748
303.97	4.844
304.33	5.202
304.69	4.962
305.05	4.898
305.41	4.499
305.77	4.564
306.13	4.297
306.49	4.061
306.85	4.006
307.21	4.047
307.57	3.923
307.93	3.880
308.29	3.689
308.65	3.877
309.01	3.814
309.37	4.036
309.73	3.874
310.09	4.056
310.45	4.086
310.81	3.963
311.17	3.683
311.53	3.654
311.89	3.581
312.25	3.493
312.61	3.338
312.96	3.389
313.32	3.285
313.68	3.210
314.04	3.075
314.40	3.063
314.76	3.045
315.12	3.219
315.48	3.133
315.84	3.206
316.20	3.508
316.56	3.638
316.92	3.532
317.27	3.593
317.63	3.757
317.99	3.913
318.35	3.981
318.71	4.156
319.07	4.107
319.43	4.153
319.79	4.118
320.15	3.890
320.50	3.836
320.86	3.977
321.22	3.914
321.58	3.823
321.94	3.654
322.30	3.717
322.66	3.747
323.01	3.693
323.37	3.888
323.73	3.938
324.09	3.858
324.45	3.864
324.81	3.719
325.17	3.655
325.52	3.707
325.88	3.861
326.24	3.724
326.60	3.679
326.96	3.682
327.31	3.591
327.67	3.655
328.03	3.651
328.39	3.730
328.75	3.858
329.11	3.987
329.46	4.004
329.82	3.956
330.18	4.023
330.54	3.980
330.90	4.072
331.25	4.020
331.61	3.937
331.97	4.076
332.33	4.149
332.68	4.209
333.04	4.270
333.40	4.266
333.76	4.228
334.11	4.236
334.47	4.428
334.83	4.338
335.19	4.398
335.54	4.435
335.90	4.547
336.26	4.541
336.62	4.433
336.97	4.359
337.33	4.438
337.69	4.445
338.05	4.529
338.40	4.355
338.76	4.501
339.12	4.582
339.48	4.664
339.83	4.493
340.19	4.448
340.55	4.524
340.90	4.629
341.26	4.720
341.62	4.922
341.97	4.860
342.33	4.901
342.69	4.894
343.04	4.885
343.40	4.801
343.76	4.870
344.12	4.848
344.47	4.805
344.83	4.724
345.19	4.721
345.54	4.550
345.90	4.542
346.26	4.624
346.61	4.687
346.97	4.548
347.32	4.571
347.68	4.707
348.04	4.614
348.39	4.621
348.75	4.515
349.11	4.333
349.46	4.404
349.82	4.447
350.18	4.517
350.53	4.406
350.89	4.508
351.24	4.515
351.60	4.319
351.96	4.384
352.31	4.409
352.67	4.591
353.02	4.704
353.38	4.684
353.74	4.714
354.09	4.656
354.45	4.737
354.80	4.719
355.16	4.819
355.52	4.906
355.87	4.932
356.23	4.998
356.58	4.959
356.94	4.961
357.29	4.978
357.65	5.010
358.00	4.969
358.36	4.998
358.72	5.013
359.07	4.889
359.43	4.882
359.78	4.884
360.14	4.812
360.49	4.828
360.85	4.783
361.20	4.752
361.56	4.711
361.91	4.703
362.27	4.724
362.62	4.658
362.98	4.756
363.33	4.804
363.69	4.823
364.04	4.839
364.40	4.796
364.75	4.785
365.11	4.778
365.46	4.811
365.82	4.829
366.17	4.789
366.53	4.814
366.88	4.807
367.24	4.788
367.59	4.798
367.95	4.838
368.30	4.864
368.66	4.988
369.01	5.045
369.37	5.122
369.72	5.162
370.08	5.173
370.43	5.250
370.78	5.224
371.14	5.232
371.49	5.284
371.85	5.291
372.20	5.355
372.56	5.358
372.91	5.373
373.26	5.277
373.62	5.296
373.97	5.289
374.33	5.245
374.68	5.284
375.03	5.308
375.39	5.256
375.74	5.313
376.10	5.311
376.45	5.303
376.80	5.350
377.16	5.405
377.51	5.433
377.87	5.516
378.22	5.670
378.57	5.742
378.93	5.805
379.28	5.909
379.63	5.962
379.99	6.044
380.34	6.192
380.70	6.298
381.05	6.402
381.40	6.475
381.76	6.519
382.11	6.535
382.46	6.526
382.82	6.563
383.17	6.578
383.52	6.548
383.88	6.542
384.23	6.502
384.58	6.461
384.94	6.451
385.29	6.429
385.64	6.453
385.99	6.456
386.35	6.493
386.70	6.454
387.05	6.514
387.41	6.529
387.76	6.599
388.11	6.622
388.47	6.658
388.82	6.686
389.17	6.755
389.52	6.794
389.88	6.819
390.23	6.858
390.58	6.959
390.93	7.012
391.29	7.107
391.64	7.131
391.99	7.198
392.34	7.242
392.70	7.213
393.05	7.222
393.40	7.249
393.75	7.274
394.11	7.279
394.46	7.248
394.81	7.232
395.16	7.189
395.52	7.144
395.87	7.044
396.22	7.024
396.57	7.028
396.92	6.985
397.28	6.905
397.63	6.866
397.98	6.851
398.33	6.832
398.68	6.751
399.04	6.795
399.39	6.778
399.74	6.865
400.09	6.867
400.44	6.923
400.80	6.964
401.15	7.042
401.50	7.098
401.85	7.107
402.20	7.169
402.55	7.207
402.90	7.241
403.26	7.307
403.61	7.305
403.96	7.365
404.31	7.396
404.66	7.435
405.01	7.476
405.36	7.493
405.72	7.567
406.07	7.567
406.42	7.604
406.77	7.567
407.12	7.610
407.47	7.604
407.82	7.565
408.17	7.598
408.53	7.625
408.88	7.592
409.23	7.589
409.58	7.626
409.93	7.653
410.28	7.701
410.63	7.777
410.98	7.777
411.33	7.818
411.68	7.841
412.03	7.835
412.38	7.888
412.73	7.997
413.09	8.055
413.44	8.091
413.79	8.168
414.14	8.258
414.49	8.306
414.84	8.386
415.19	8.453
415.54	8.538
415.89	8.614
416.24	8.681
416.59	8.740
416.94	8.808
417.29	8.835
417.64	8.864
417.99	8.907
418.34	8.930
418.69	8.950
419.04	8.970
419.39	9.021
419.74	9.044
420.09	9.054
420.44	9.054
420.79	9.052
421.14	9.079
421.49	9.099
421.84	9.075
422.19	9.084
422.54	9.115
422.89	9.147
423.24	9.123
423.59	9.134
423.94	9.114
424.29	9.087
424.64	9.087
424.99	9.085
425.34	9.063
425.68	9.072
426.03	9.082
426.38	9.068
426.73	9.071
427.08	9.076
427.43	9.087
427.78	9.112
428.13	9.170
428.48	9.196
428.83	9.179
429.18	9.224
429.53	9.217
429.87	9.240
430.22	9.248
430.57	9.257
430.92	9.284
431.27	9.290
431.62	9.288
431.97	9.285
432.32	9.313
432.67	9.334
433.01	9.323
433.36	9.359
433.71	9.350
434.06	9.348
434.41	9.340
434.76	9.352
435.11	9.374
435.45	9.412
435.80	9.426
436.15	9.425
436.50	9.455
436.85	9.491
437.20	9.528
437.54	9.534
437.89	9.519
438.24	9.532
438.59	9.534
438.94	9.523
439.29	9.493
439.63	9.490
439.98	9.469
440.33	9.462
440.68	9.442
441.03	9.408
441.37	9.430
441.72	9.462
442.07	9.476
442.42	9.471
442.76	9.492
443.11	9.510
443.46	9.520
443.81	9.549
444.16	9.545
444.50	9.561
444.85	9.571
445.20	9.558
445.55	9.535
445.89	9.505
446.24	9.490
446.59	9.447
446.94	9.404
447.28	9.348
447.63	9.288
447.98	9.250
448.32	9.180
448.67	9.118
449.02	9.080
449.37	9.045
449.71	9.030
450.06	9.026
450.41	9.036
450.75	9.058
451.10	9.072
451.45	9.061
451.79	9.043
452.14	9.044
452.49	9.041
452.84	9.018
453.18	9.020
453.53	9.036
453.88	9.024
454.22	9.052
454.57	9.065
454.92	9.121
455.26	9.176
455.61	9.256
455.95	9.316
456.30	9.392
456.65	9.448
456.99	9.507
457.34	9.558
457.69	9.606
458.03	9.619
458.38	9.657
458.73	9.654
459.07	9.684
459.42	9.678
459.76	9.663
460.11	9.643
460.46	9.647
460.80	9.657
461.15	9.647
461.49	9.645
461.84	9.661
462.19	9.679
462.53	9.716
462.88	9.735
463.22	9.785
463.57	9.851
463.91	9.901
464.26	9.959
464.61	9.997
464.95	10.036
465.30	10.113
465.64	10.163
465.99	10.215
466.33	10.231
466.68	10.251
467.02	10.274
467.37	10.315
467.71	10.342
468.06	10.373
468.41	10.373
468.75	10.382
469.10	10.356
469.44	10.349
469.79	10.351
470.13	10.376
470.48	10.390
470.82	10.381
471.17	10.366
471.51	10.378
471.86	10.355
472.20	10.371
472.55	10.356
472.89	10.347
473.23	10.321
473.58	10.278
473.92	10.254
474.27	10.257
474.61	10.234
474.96	10.215
475.30	10.170
475.65	10.149
475.99	10.122
476.34	10.138
476.68	10.155
477.02	10.180
477.37	10.198
477.71	10.228
478.06	10.280
478.40	10.419
478.75	10.573
479.09	10.769
479.43	10.975
479.78	11.147
480.12	11.306
480.47	11.462
480.81	11.607
481.15	11.727
481.50	11.843
481.84	11.950
482.19	12.048
482.53	12.110
482.87	12.123
483.22	12.117
483.56	12.118
483.90	12.097
484.25	12.063
484.59	12.004
484.94	11.956
485.28	11.892
485.62	11.812
485.97	11.725
486.31	11.674
486.65	11.657
487.00	11.655
487.34	11.642
487.68	11.628
488.03	11.635
488.37	11.647
488.71	11.660
489.06	11.704
489.40	11.734
489.74	11.757
490.09	11.767
490.43	11.769
490.77	11.759
491.11	11.762
491.46	11.765
491.80	11.749
492.14	11.751
492.49	11.783
492.83	11.772
493.17	11.762
493.51	11.778
493.86	11.806
494.20	11.887
494.54	11.985
494.88	12.055
495.23	12.180
495.57	12.292
495.91	12.402
496.25	12.489
496.60	12.583
496.94	12.701
497.28	12.827
497.62	12.939
497.97	13.028
498.31	13.142
498.65	13.273
498.99	13.435
499.33	13.582
499.68	13.767
500.02	13.946
500.36	14.122
500.70	14.317
501.04	14.476
501.39	14.663
501.73	14.844
502.07	14.993
502.41	15.205
502.75	15.328
503.09	15.508
503.44	15.659
503.78	15.816
504.12	15.989
504.46	16.151
504.80	16.306
505.14	16.476
505.49	16.638
505.83	16.813
506.17	16.988
506.51	17.172
506.85	17.355
507.19	17.523
507.53	17.688
507.87	17.867
508.22	18.030
508.56	18.224
508.90	18.398
509.24	18.569
509.58	18.737
509.92	18.881
510.26	19.050
510.60	19.196
510.94	19.380
511.28	19.554
511.63	19.720
511.97	19.889
512.31	20.035
512.65	20.234
512.99	20.409
513.33	20.608
513.67	20.824
514.01	21.016
514.35	21.217
514.69	21.375
515.03	21.554
515.37	21.709
515.71	21.856
516.05	22.012
516.39	22.083
516.73	22.210
517.07	22.289
517.41	22.341
517.75	22.392
518.09	22.434
518.43	22.489
518.77	22.518
519.11	22.545
519.45	22.587
519.79	22.630
520.13	22.725
520.47	22.801
520.81	22.894
521.15	23.009
521.49	23.151
521.83	23.287
522.17	23.421
522.51	23.569
522.85	23.751
523.19	23.984
523.53	24.255
523.87	24.545
524.21	24.839
524.55	25.100
524.89	25.318
525.23	25.508
525.57	25.672
525.91	25.855
526.25	26.003
526.58	26.127
526.92	26.222
527.26	26.254
527.60	26.241
527.94	26.216
528.28	26.167
528.62	26.124
528.96	26.079
529.30	26.037
529.64	25.964
529.97	25.894
530.31	25.830
530.65	25.763
530.99	25.730
531.33	25.726
531.67	25.717
532.01	25.734
532.35	25.752
532.68	25.734
533.02	25.710
533.36	25.679
533.70	25.669
534.04	25.634
534.38	25.607
534.71	25.583
535.05	25.545
535.39	25.514
535.73	25.523
536.07	25.533
536.41	25.585
536.74	25.694
537.08	25.794
537.42	25.906
537.76	26.057
538.10	26.196
538.43	26.320
538.77	26.444
539.11	26.535
539.45	26.612
539.79	26.689
540.12	26.744
540.46	26.740
540.80	26.731
541.14	26.690
541.47	26.632
541.81	26.562
542.15	26.484
542.49	26.398
542.82	26.343
543.16	26.255
543.50	26.129
543.84	26.054
544.17	26.005
544.51	25.949
544.85	25.931
545.18	25.871
545.52	25.819
545.86	25.783
546.20	25.758
546.53	25.696
546.87	25.656
547.21	25.638
547.54	25.588
547.88	25.549
548.22	25.546
548.55	25.510
548.89	25.522
549.23	25.537
549.56	25.567
549.90	25.547
550.24	25.568
550.57	25.590
550.91	25.567
551.25	25.556
551.58	25.549
551.92	25.551
552.26	25.548
552.59	25.583
552.93	25.567
553.27	25.546
553.60	25.556
553.94	25.552
554.27	25.529
554.61	25.573
554.95	25.622
555.28	25.658
555.62	25.648
555.95	25.692
556.29	25.652
556.63	25.663
556.96	25.620
557.30	25.640
557.63	25.647
557.97	25.656
558.31	25.640
558.64	25.600
558.98	25.564
559.31	25.591
559.65	25.578
559.98	25.577
560.32	25.594
560.65	25.688
560.99	25.726
561.33	25.760
561.66	25.809
562.00	25.860
562.33	25.939
562.67	25.970
563.00	26.042
563.34	26.054
563.67	26.130
564.01	26.145
564.34	26.138
564.68	26.163
565.01	26.196
565.35	26.214
565.68	26.230
566.02	26.235
566.35	26.292
566.69	26.263
567.02	26.313
567.36	26.275
567.69	26.281
568.03	26.316
568.36	26.321
568.69	26.309
569.03	26.284
569.36	26.311
569.70	26.280
570.03	26.285
570.37	26.299
570.70	26.264
571.04	26.306
571.37	26.357
571.70	26.316
572.04	26.316
572.37	26.297
572.71	26.304
573.04	26.277
573.37	26.294
573.71	26.270
574.04	26.252
574.38	26.273
574.71	26.245
575.04	26.183
575.38	26.175
575.71	26.108
576.05	26.069
576.38	26.042
576.71	26.009
577.05	25.994
577.38	25.953
577.71	25.898
578.05	25.854
578.38	25.814
578.71	25.770
579.05	25.758
579.38	25.780
579.71	25.791
580.05	25.758
580.38	25.705
580.71	25.619
581.05	25.582
581.38	25.563
581.71	25.522
582.05	25.488
582.38	25.481
582.71	25.449
583.04	25.380
583.38	25.386
583.71	25.412
584.04	25.442
584.38	25.518
584.71	25.577
585.04	25.606
585.37	25.667
585.71	25.736
586.04	25.770
586.37	25.824
586.70	25.921
587.04	25.939
587.37	25.954
587.70	25.972
588.03	25.931
588.37	25.940
588.70	25.950
589.03	25.895
589.36	25.845
589.69	25.783
590.03	25.746
590.36	25.681
590.69	25.641
591.02	25.590
591.35	25.577
591.69	25.565
592.02	25.525
592.35	25.494
592.68	25.469
593.01	25.473
593.35	25.490
593.68	25.438
594.01	25.404
594.34	25.323
594.67	25.315
595.00	25.275
595.34	25.265
595.67	25.225
596.00	25.170
596.33	25.139
596.66	25.053
596.99	24.990
597.32	24.911
597.65	24.890
597.99	24.861
598.32	24.769
598.65	24.682
598.98	24.600
599.31	24.507
599.64	24.456
599.97	24.390
600.30	24.387
600.63	24.319
600.96	24.357
601.30	24.313
601.63	24.292
601.96	24.288
602.29	24.253
602.62	24.220
602.95	24.154
603.28	24.142
603.61	24.123
603.94	24.101
604.27	24.108
604.60	24.052
604.93	23.985
605.26	23.949
605.59	23.853
605.92	23.775
606.25	23.735
606.58	23.779
606.91	23.742
607.24	23.720
607.57	23.651
607.90	23.645
608.23	23.599
608.56	23.611
608.89	23.602
609.22	23.603
609.55	23.612
609.88	23.612
610.21	23.552
610.54	23.481
610.87	23.439
611.20	23.426
611.53	23.312
611.86	23.292
612.19	23.219
612.52	23.173
612.85	23.135
613.18	23.145
613.51	23.016
613.84	23.000
614.17	22.991
614.49	22.953
614.82	22.911
615.15	22.915
615.48	22.877
615.81	22.839
616.14	22.794
616.47	22.764
616.80	22.762
617.13	22.783
617.46	22.719
617.78	22.683
618.11	22.616
618.44	22.556
618.77	22.537
619.10	22.498
619.43	22.456
619.76	22.456
620.09	22.371
620.41	22.276
620.74	22.261
621.07	22.266
621.40	22.293
621.73	22.315
622.06	22.316
622.38	22.249
622.71	22.255
623.04	22.271
623.37	22.227
623.70	22.244
624.02	22.250
624.35	22.233
624.68	22.194
625.01	22.128
625.34	22.091
625.66	22.095
625.99	22.057
626.32	22.014
626.65	21.969
626.98	21.953
627.30	21.932
627.63	21.885
627.96	21.844
628.29	21.777
628.61	21.732
628.94	21.721
629.27	21.631
629.60	21.648
629.92	21.609
630.25	21.567
630.58	21.461
630.91	21.437
631.23	21.396
631.56	21.358
631.89	21.351
632.21	21.325
632.54	21.223
632.87	21.131
633.19	21.043
633.52	20.931
633.85	20.854
634.18	20.855
634.50	20.791
634.83	20.746
635.16	20.692
635.48	20.562
635.81	20.520
636.14	20.467
636.46	20.465
636.79	20.446
637.11	20.471
637.44	20.491
637.77	20.458
638.09	20.468
638.42	20.446
638.75	20.377
639.07	20.394
639.40	20.310
639.73	20.277
640.05	20.275
640.38	20.266
640.70	20.213
641.03	20.166
641.36	20.105
641.68	19.983
642.01	20.001
642.33	20.013
642.66	20.008
642.98	20.049
643.31	20.117
643.64	20.120
643.96	20.113
644.29	20.124
644.61	20.084
644.94	20.129
645.26	20.247
645.59	20.201
645.91	20.236
646.24	20.293
646.56	20.287
646.89	20.206
