OOIBase32 Version 2.0.0.6 Data File
++++++++++++++++++++++++++++++++++++
Date: 01-23-2012, 21:38:50
User: Valued Ocean Optics Customer
Spectrometer Serial Number: USB2E2917
Spectrometer Channel: Master
Integration Time (msec): 5
Spectra Averaged: 10
Boxcar Smoothing: 5
Correct for Electrical Dark: Enabled
Time Normalized: Disabled
Dual-beam Reference: Disabled
Reference Channel: Master
Temperature: Not acquired
Spectrometer Type: S2000
ADC Type: USB2000
Number of Pixels in File: 2048
Graph Title: 
>>>>>Begin Spectral Data<<<<<
180.30	0.000
180.67	0.000
181.03	97.578
181.40	-278.299
181.77	6362.400
182.14	92.515
182.51	217.892
182.88	4640.360
183.25	302.152
183.62	-163.502
183.99	58.165
184.36	191.843
184.73	12.214
185.10	48.734
185.46	-74.108
185.83	266.256
186.20	-66.888
186.57	-154.640
186.94	8.090
187.31	75.751
187.68	-149.035
188.05	3.488
188.42	0.351
188.78	-14.642
189.15	-4.133
189.52	-6.612
189.89	-6.657
190.26	-22.191
190.63	-0.523
191.00	-10.603
191.37	-11.636
191.73	5.550
192.10	0.197
192.47	-2.364
192.84	4.955
193.21	-0.403
193.58	7.366
193.94	9.888
194.31	9.204
194.68	19.468
195.05	15.724
195.42	9.254
195.79	12.476
196.15	19.926
196.52	20.872
196.89	19.658
197.26	23.067
197.63	22.035
198.00	18.997
198.36	20.666
198.73	-0.398
199.10	10.440
199.47	11.348
199.84	-2.122
200.20	8.427
200.57	6.722
200.94	-4.263
201.31	-6.669
201.68	2.780
202.04	-2.441
202.41	5.824
202.78	7.826
203.15	-1.815
203.51	-17.165
203.88	-21.409
204.25	-43.007
204.62	-30.879
204.98	-22.707
205.35	-27.369
205.72	-31.625
206.09	-16.607
206.46	-5.221
206.82	-1.320
207.19	10.532
207.56	22.527
207.92	28.669
208.29	25.983
208.66	30.859
209.03	36.085
209.39	37.077
209.76	18.302
210.13	16.498
210.50	2.487
210.86	14.479
211.23	22.569
211.60	24.449
211.96	23.301
212.33	24.082
212.70	24.818
213.07	12.510
213.43	21.001
213.80	29.159
214.17	23.428
214.53	24.049
214.90	21.673
215.27	8.839
215.63	12.229
216.00	7.751
216.37	11.463
216.74	4.956
217.10	20.304
217.47	14.865
217.84	22.569
218.20	31.105
218.57	36.809
218.94	27.917
219.30	34.422
219.67	32.234
220.04	43.452
220.40	47.517
220.77	45.302
221.13	39.337
221.50	37.273
221.87	30.132
222.23	30.957
222.60	25.617
222.97	24.861
223.33	21.283
223.70	23.344
224.07	22.181
224.43	24.555
224.80	27.289
225.16	27.887
225.53	27.596
225.90	26.913
226.26	26.293
226.63	26.679
226.99	28.816
227.36	30.738
227.73	29.781
228.09	26.497
228.46	25.857
228.82	26.517
229.19	25.480
229.56	23.641
229.92	22.885
230.29	23.897
230.65	23.411
231.02	23.808
231.38	22.655
231.75	23.100
232.12	27.137
232.48	26.735
232.85	25.192
233.21	26.283
233.58	28.659
233.94	30.466
234.31	27.067
234.68	26.257
235.04	25.156
235.41	25.554
235.77	23.522
236.14	21.288
236.50	18.299
236.87	18.464
237.23	17.693
237.60	17.551
237.96	17.131
238.33	18.544
238.69	18.770
239.06	18.936
239.42	18.821
239.79	19.429
240.15	20.221
240.52	21.358
240.88	21.382
241.25	21.140
241.61	21.104
241.98	20.939
242.34	20.897
242.71	21.123
243.07	21.337
243.44	21.136
243.80	21.071
244.17	20.798
244.53	20.641
244.90	20.220
245.26	20.041
245.63	20.070
245.99	19.985
246.36	19.662
246.72	19.144
247.09	18.798
247.45	18.824
247.81	18.643
248.18	18.313
248.54	18.100
248.91	17.916
249.27	18.241
249.64	17.677
250.00	17.687
250.36	18.188
250.73	19.000
251.09	18.885
251.46	18.314
251.82	18.459
252.19	18.491
252.55	18.671
252.91	19.008
253.28	18.338
253.64	18.352
254.01	18.552
254.37	17.873
254.73	17.619
255.10	17.967
255.46	17.832
255.83	17.416
256.19	17.743
256.55	17.323
256.92	17.276
257.28	17.482
257.65	17.741
258.01	17.588
258.37	17.553
258.74	17.322
259.10	17.242
259.46	17.451
259.83	17.541
260.19	17.367
260.55	17.405
260.92	17.270
261.28	16.929
261.64	16.791
262.01	16.596
262.37	16.622
262.73	16.403
263.10	16.441
263.46	16.550
263.82	16.540
264.19	16.627
264.55	16.755
264.91	17.125
265.28	17.490
265.64	17.152
266.00	17.123
266.37	17.008
266.73	17.070
267.09	16.933
267.46	17.032
267.82	16.671
268.18	16.556
268.54	16.437
268.91	16.264
269.27	16.230
269.63	16.345
270.00	16.530
270.36	16.533
270.72	16.702
271.08	16.328
271.45	16.102
271.81	16.444
272.17	16.689
272.53	16.560
272.90	16.457
273.26	16.432
273.62	16.293
273.98	16.196
274.35	16.103
274.71	16.035
275.07	16.198
275.43	16.190
275.80	16.100
276.16	15.907
276.52	16.002
276.88	15.940
277.25	15.693
277.61	15.920
277.97	15.771
278.33	15.618
278.69	15.320
279.06	15.278
279.42	14.904
279.78	14.577
280.14	14.445
280.50	14.258
280.87	14.315
281.23	14.588
281.59	14.407
281.95	14.401
282.31	14.649
282.68	14.800
283.04	14.671
283.40	14.800
283.76	14.918
284.12	14.920
284.48	14.986
284.85	15.027
285.21	14.979
285.57	14.952
285.93	14.973
286.29	14.718
286.65	14.704
287.02	14.858
287.38	14.940
287.74	15.036
288.10	14.984
288.46	15.051
288.82	14.776
289.18	14.526
289.54	14.449
289.91	14.536
290.27	14.768
290.63	14.873
290.99	14.748
291.35	14.805
291.71	14.839
292.07	15.005
292.43	15.127
292.79	15.737
293.16	15.834
293.52	16.086
293.88	16.110
294.24	16.131
294.60	16.050
294.96	16.167
295.32	16.290
295.68	16.167
296.04	16.278
296.40	16.372
296.76	16.240
297.12	16.326
297.49	16.508
297.85	16.836
298.21	17.106
298.57	17.510
298.93	17.883
299.29	18.192
299.65	18.737
300.01	19.129
300.37	19.426
300.73	19.945
301.09	20.574
301.45	20.857
301.81	21.145
302.17	21.271
302.53	21.468
302.89	21.731
303.25	21.808
303.61	22.145
303.97	22.308
304.33	22.593
304.69	22.670
305.05	22.809
305.41	22.966
305.77	22.953
306.13	23.314
306.49	23.515
306.85	23.705
307.21	23.976
307.57	23.990
307.93	24.124
308.29	24.200
308.65	24.186
309.01	24.095
309.37	24.102
309.73	24.295
310.09	24.367
310.45	24.446
310.81	24.463
311.17	24.454
311.53	24.568
311.89	24.688
312.25	24.759
312.61	24.847
312.96	25.089
313.32	25.190
313.68	25.054
314.04	25.058
314.40	25.073
314.76	25.118
315.12	25.196
315.48	25.373
315.84	25.190
316.20	25.266
316.56	25.342
316.92	25.359
317.27	25.390
317.63	25.510
317.99	25.459
318.35	25.472
318.71	25.440
319.07	25.389
319.43	25.077
319.79	25.084
320.15	25.011
320.50	24.852
320.86	24.988
321.22	24.922
321.58	24.889
321.94	24.817
322.30	24.685
322.66	24.671
323.01	24.724
323.37	24.750
323.73	24.719
324.09	24.674
324.45	24.778
324.81	24.650
325.17	24.644
325.52	24.639
325.88	24.622
326.24	24.676
326.60	24.819
326.96	24.821
327.31	24.841
327.67	24.914
328.03	24.858
328.39	24.804
328.75	24.649
329.11	24.556
329.46	24.526
329.82	24.635
330.18	24.562
330.54	24.417
330.90	24.396
331.25	24.327
331.61	24.211
331.97	24.228
332.33	24.301
332.68	24.286
333.04	24.366
333.40	24.249
333.76	24.159
334.11	24.081
334.47	23.953
334.83	23.763
335.19	23.760
335.54	23.835
335.90	23.793
336.26	23.730
336.62	23.730
336.97	23.586
337.33	23.689
337.69	23.652
338.05	23.627
338.40	23.686
338.76	23.668
339.12	23.636
339.48	23.608
339.83	23.521
340.19	23.449
340.55	23.339
340.90	23.417
341.26	23.282
341.62	23.171
341.97	23.240
342.33	23.234
342.69	23.269
343.04	23.234
343.40	23.165
343.76	23.245
344.12	23.195
344.47	23.333
344.83	23.190
345.19	23.125
345.54	23.065
345.90	23.020
346.26	22.866
346.61	22.825
346.97	22.747
347.32	22.677
347.68	22.582
348.04	22.559
348.39	22.538
348.75	22.685
349.11	22.707
349.46	22.729
349.82	22.685
350.18	22.717
350.53	22.675
350.89	22.693
351.24	22.644
351.60	22.493
351.96	22.446
352.31	22.336
352.67	22.189
353.02	22.153
353.38	22.075
353.74	21.948
354.09	21.820
354.45	21.881
354.80	21.863
355.16	21.823
355.52	21.860
355.87	21.845
356.23	21.823
356.58	21.846
356.94	21.826
357.29	21.814
357.65	21.838
358.00	21.892
358.36	21.753
358.72	21.760
359.07	21.771
359.43	21.787
359.78	21.720
360.14	21.638
360.49	21.529
360.85	21.544
361.20	21.564
361.56	21.599
361.91	21.560
362.27	21.486
362.62	21.401
362.98	21.306
363.33	21.245
363.69	21.160
364.04	21.148
364.40	21.150
364.75	21.090
365.11	21.106
365.46	21.028
365.82	21.008
366.17	21.031
366.53	21.022
366.88	20.985
367.24	20.970
367.59	21.040
367.95	21.028
368.30	21.027
368.66	21.025
369.01	20.941
369.37	20.930
369.72	20.886
370.08	20.872
370.43	20.830
370.78	20.791
371.14	20.777
371.49	20.763
371.85	20.791
372.20	20.770
372.56	20.766
372.91	20.743
373.26	20.716
373.62	20.663
373.97	20.683
374.33	20.601
374.68	20.612
375.03	20.576
375.39	20.475
375.74	20.346
376.10	20.271
376.45	20.147
376.80	20.058
377.16	20.023
377.51	20.045
377.87	19.957
378.22	19.953
378.57	19.941
378.93	19.937
379.28	19.976
379.63	20.002
379.99	20.022
380.34	20.042
380.70	20.103
381.05	20.044
381.40	19.977
381.76	19.933
382.11	19.889
382.46	19.809
382.82	19.731
383.17	19.699
383.52	19.651
383.88	19.606
384.23	19.583
384.58	19.513
384.94	19.526
385.29	19.561
385.64	19.593
385.99	19.634
386.35	19.674
386.70	19.612
387.05	19.516
387.41	19.464
387.76	19.405
388.11	19.314
388.47	19.313
388.82	19.202
389.17	19.102
389.52	19.062
389.88	18.999
390.23	18.944
390.58	18.988
390.93	18.959
391.29	18.919
391.64	18.919
391.99	18.889
392.34	18.809
392.70	18.830
393.05	18.804
393.40	18.732
393.75	18.678
394.11	18.635
394.46	18.501
394.81	18.478
395.16	18.411
395.52	18.360
395.87	18.299
396.22	18.229
396.57	18.145
396.92	18.125
397.28	18.127
397.63	18.053
397.98	18.065
398.33	18.113
398.68	18.082
399.04	18.087
399.39	18.037
399.74	18.017
400.09	18.030
400.44	18.011
400.80	17.941
401.15	17.870
401.50	17.844
401.85	17.801
402.20	17.745
402.55	17.704
402.90	17.645
403.26	17.637
403.61	17.624
403.96	17.582
404.31	17.548
404.66	17.510
405.01	17.498
405.36	17.498
405.72	17.419
406.07	17.400
406.42	17.333
406.77	17.304
407.12	17.237
407.47	17.216
407.82	17.179
408.17	17.164
408.53	17.164
408.88	17.133
409.23	17.113
409.58	17.055
409.93	16.982
410.28	17.033
410.63	17.022
410.98	17.051
411.33	17.015
411.68	16.981
412.03	16.944
412.38	16.913
412.73	16.870
413.09	16.816
413.44	16.838
413.79	16.798
414.14	16.738
414.49	16.727
414.84	16.646
415.19	16.616
415.54	16.596
415.89	16.559
416.24	16.537
416.59	16.512
416.94	16.485
417.29	16.441
417.64	16.415
417.99	16.385
418.34	16.355
418.69	16.327
419.04	16.320
419.39	16.293
419.74	16.275
420.09	16.237
420.44	16.233
420.79	16.204
421.14	16.178
421.49	16.164
421.84	16.139
422.19	16.095
422.54	16.103
422.89	16.053
423.24	16.024
423.59	16.013
423.94	16.007
424.29	15.970
424.64	15.973
424.99	15.981
425.34	15.994
425.68	16.027
426.03	16.082
426.38	16.083
426.73	16.114
427.08	16.166
427.43	16.192
427.78	16.207
428.13	16.228
428.48	16.261
428.83	16.281
429.18	16.295
429.53	16.263
429.87	16.248
430.22	16.232
430.57	16.236
430.92	16.213
431.27	16.194
431.62	16.177
431.97	16.155
432.32	16.123
432.67	16.088
433.01	16.048
433.36	16.060
433.71	16.046
434.06	16.039
434.41	16.049
434.76	16.059
435.11	16.036
435.45	16.060
435.80	16.046
436.15	16.038
436.50	16.039
436.85	16.029
437.20	16.006
437.54	15.993
437.89	15.984
438.24	15.930
438.59	15.909
438.94	15.905
439.29	15.888
439.63	15.874
439.98	15.874
440.33	15.841
440.68	15.847
441.03	15.850
441.37	15.854
441.72	15.852
442.07	15.867
442.42	15.846
442.76	15.837
443.11	15.823
443.46	15.808
443.81	15.785
444.16	15.781
444.50	15.762
444.85	15.750
445.20	15.717
445.55	15.665
445.89	15.626
446.24	15.592
446.59	15.579
446.94	15.557
447.28	15.549
447.63	15.548
447.98	15.547
448.32	15.531
448.67	15.485
449.02	15.484
449.37	15.501
449.71	15.513
450.06	15.531
450.41	15.514
450.75	15.498
451.10	15.478
451.45	15.475
451.79	15.446
452.14	15.438
452.49	15.428
452.84	15.439
453.18	15.433
453.53	15.429
453.88	15.422
454.22	15.418
454.57	15.418
454.92	15.445
455.26	15.413
455.61	15.409
455.95	15.411
456.30	15.435
456.65	15.416
456.99	15.407
457.34	15.399
457.69	15.396
458.03	15.370
458.38	15.355
458.73	15.317
459.07	15.311
459.42	15.299
459.76	15.268
460.11	15.235
460.46	15.220
460.80	15.234
461.15	15.229
461.49	15.183
461.84	15.209
462.19	15.236
462.53	15.270
462.88	15.258
463.22	15.262
463.57	15.294
463.91	15.326
464.26	15.332
464.61	15.322
464.95	15.316
465.30	15.330
465.64	15.319
465.99	15.295
466.33	15.259
466.68	15.271
467.02	15.274
467.37	15.247
467.71	15.228
468.06	15.190
468.41	15.162
468.75	15.157
469.10	15.146
469.44	15.114
469.79	15.091
470.13	15.099
470.48	15.050
470.82	15.034
471.17	15.038
471.51	15.014
471.86	15.013
472.20	14.992
472.55	14.971
472.89	14.960
473.23	14.963
473.58	14.914
473.92	14.892
474.27	14.884
474.61	14.855
474.96	14.825
475.30	14.780
475.65	14.768
475.99	14.755
476.34	14.717
476.68	14.713
477.02	14.701
477.37	14.715
477.71	14.715
478.06	14.764
478.40	14.833
478.75	14.962
479.09	15.144
479.43	15.265
479.78	15.437
480.12	15.627
480.47	15.833
480.81	16.050
481.15	16.260
481.50	16.494
481.84	16.766
482.19	17.055
482.53	17.257
482.87	17.313
483.22	17.245
483.56	17.040
483.90	16.751
484.25	16.398
484.59	16.063
484.94	15.810
485.28	15.551
485.62	15.221
485.97	14.862
486.31	14.553
486.65	14.376
487.00	14.338
487.34	14.406
487.68	14.543
488.03	14.708
488.37	14.839
488.71	14.876
489.06	14.867
489.40	14.837
489.74	14.798
490.09	14.774
490.43	14.730
490.77	14.680
491.11	14.629
491.46	14.596
491.80	14.554
492.14	14.508
492.49	14.444
492.83	14.385
493.17	14.344
493.51	14.317
493.86	14.279
494.20	14.248
494.54	14.251
494.88	14.247
495.23	14.234
495.57	14.239
495.91	14.233
496.25	14.220
496.60	14.183
496.94	14.181
497.28	14.151
497.62	14.135
497.97	14.123
498.31	14.105
498.65	14.098
498.99	14.088
499.33	14.082
499.68	14.067
500.02	14.067
500.36	14.079
500.70	14.050
501.04	14.054
501.39	14.028
501.73	14.024
502.07	14.025
502.41	14.021
502.75	13.992
503.09	13.989
503.44	13.987
503.78	13.995
504.12	13.983
504.46	13.988
504.80	13.984
505.14	13.982
505.49	13.981
505.83	13.990
506.17	13.997
506.51	14.003
506.85	13.981
507.19	13.982
507.53	13.983
507.87	13.981
508.22	13.971
508.56	13.950
508.90	13.924
509.24	13.904
509.58	13.885
509.92	13.882
510.26	13.866
510.60	13.876
510.94	13.849
511.28	13.819
511.63	13.808
511.97	13.791
512.31	13.784
512.65	13.794
512.99	13.802
513.33	13.784
513.67	13.777
514.01	13.786
514.35	13.789
514.69	13.809
515.03	13.823
515.37	13.827
515.71	13.846
516.05	13.852
516.39	13.840
516.73	13.840
517.07	13.847
517.41	13.830
517.75	13.808
518.09	13.776
518.43	13.744
518.77	13.718
519.11	13.703
519.45	13.675
519.79	13.666
520.13	13.661
520.47	13.636
520.81	13.634
521.15	13.637
521.49	13.657
521.83	13.660
522.17	13.682
522.51	13.701
522.85	13.718
523.19	13.781
523.53	13.871
523.87	13.975
524.21	14.056
524.55	14.123
524.89	14.183
525.23	14.249
525.57	14.310
525.91	14.348
526.25	14.391
526.58	14.439
526.92	14.446
527.26	14.416
527.60	14.363
527.94	14.309
528.28	14.247
528.62	14.179
528.96	14.107
529.30	14.043
529.64	13.984
529.97	13.908
530.31	13.812
530.65	13.733
530.99	13.686
531.33	13.671
531.67	13.677
532.01	13.670
532.35	13.667
532.68	13.647
533.02	13.617
533.36	13.591
533.70	13.567
534.04	13.549
534.38	13.536
534.71	13.512
535.05	13.454
535.39	13.396
535.73	13.382
536.07	13.387
536.41	13.405
536.74	13.430
537.08	13.445
537.42	13.475
537.76	13.495
538.10	13.524
538.43	13.536
538.77	13.576
539.11	13.611
539.45	13.627
539.79	13.620
540.12	13.606
540.46	13.575
540.80	13.549
541.14	13.504
541.47	13.470
541.81	13.429
542.15	13.392
542.49	13.347
542.82	13.270
543.16	13.206
543.50	13.163
543.84	13.106
544.17	13.083
544.51	13.051
544.85	13.034
545.18	13.016
545.52	13.009
545.86	12.974
546.20	12.930
546.53	12.917
546.87	12.891
547.21	12.857
547.54	12.848
547.88	12.836
548.22	12.848
548.55	12.855
548.89	12.845
549.23	12.829
549.56	12.816
549.90	12.825
550.24	12.831
550.57	12.827
550.91	12.827
551.25	12.822
551.58	12.804
551.92	12.790
552.26	12.768
552.59	12.762
552.93	12.728
553.27	12.746
553.60	12.738
553.94	12.732
554.27	12.733
554.61	12.718
554.95	12.728
555.28	12.738
555.62	12.733
555.95	12.733
556.29	12.723
556.63	12.728
556.96	12.703
557.30	12.687
557.63	12.678
557.97	12.682
558.31	12.681
558.64	12.688
558.98	12.678
559.31	12.668
559.65	12.675
559.98	12.654
560.32	12.641
560.65	12.644
560.99	12.664
561.33	12.683
561.66	12.683
562.00	12.693
562.33	12.687
562.67	12.681
563.00	12.706
563.34	12.693
563.67	12.727
564.01	12.733
564.34	12.720
564.68	12.716
565.01	12.691
565.35	12.658
565.68	12.636
566.02	12.601
566.35	12.605
566.69	12.588
567.02	12.595
567.36	12.596
567.69	12.584
568.03	12.608
568.36	12.602
568.69	12.611
569.03	12.624
569.36	12.643
569.70	12.653
570.03	12.647
570.37	12.606
570.70	12.608
571.04	12.568
571.37	12.563
571.70	12.545
572.04	12.526
572.37	12.495
572.71	12.481
573.04	12.475
573.37	12.487
573.71	12.471
574.04	12.473
574.38	12.440
574.71	12.433
575.04	12.419
575.38	12.408
575.71	12.385
576.05	12.406
576.38	12.410
576.71	12.372
577.05	12.347
577.38	12.354
577.71	12.379
578.05	12.374
578.38	12.398
578.71	12.385
579.05	12.416
579.38	12.456
579.71	12.440
580.05	12.411
580.38	12.412
580.71	12.392
581.05	12.383
581.38	12.360
581.71	12.352
582.05	12.322
582.38	12.351
582.71	12.317
583.04	12.289
583.38	12.291
583.71	12.310
584.04	12.332
584.38	12.340
584.71	12.303
585.04	12.317
585.37	12.346
585.71	12.354
586.04	12.355
586.37	12.351
586.70	12.359
587.04	12.338
587.37	12.321
587.70	12.285
588.03	12.285
588.37	12.296
588.70	12.271
589.03	12.227
589.36	12.208
589.69	12.183
590.03	12.178
590.36	12.166
590.69	12.172
591.02	12.191
591.35	12.172
591.69	12.141
592.02	12.132
592.35	12.118
592.68	12.117
593.01	12.150
593.35	12.170
593.68	12.176
594.01	12.159
594.34	12.147
594.67	12.127
595.00	12.144
595.34	12.130
595.67	12.130
596.00	12.108
596.33	12.096
596.66	12.038
596.99	12.008
597.32	11.971
597.65	11.977
597.99	11.971
598.32	11.951
598.65	11.944
598.98	11.952
599.31	11.963
599.64	12.001
599.97	12.015
600.30	12.022
600.63	12.001
600.96	12.003
601.30	12.002
601.63	12.006
601.96	11.988
602.29	11.968
602.62	11.976
602.95	11.953
603.28	11.913
603.61	11.902
603.94	11.900
604.27	11.894
604.60	11.861
604.93	11.837
605.26	11.808
605.59	11.806
605.92	11.792
606.25	11.771
606.58	11.753
606.91	11.755
607.24	11.757
607.57	11.721
607.90	11.735
608.23	11.717
608.56	11.713
608.89	11.689
609.22	11.682
609.55	11.680
609.88	11.654
610.21	11.659
610.54	11.649
610.87	11.628
611.20	11.621
611.53	11.571
611.86	11.589
612.19	11.568
612.52	11.563
612.85	11.540
613.18	11.523
613.51	11.490
613.84	11.446
614.17	11.441
614.49	11.438
614.82	11.431
615.15	11.414
615.48	11.408
615.81	11.405
616.14	11.405
616.47	11.392
616.80	11.375
617.13	11.388
617.46	11.376
617.78	11.343
618.11	11.335
618.44	11.333
618.77	11.335
619.10	11.325
619.43	11.303
619.76	11.305
620.09	11.330
620.41	11.329
620.74	11.328
621.07	11.328
621.40	11.332
621.73	11.322
622.06	11.337
622.38	11.366
622.71	11.325
623.04	11.324
623.37	11.340
623.70	11.338
624.02	11.344
624.35	11.372
624.68	11.395
625.01	11.404
625.34	11.399
625.66	11.401
625.99	11.402
626.32	11.449
626.65	11.456
626.98	11.443
627.30	11.415
627.63	11.418
627.96	11.402
628.29	11.362
628.61	11.350
628.94	11.329
629.27	11.314
629.60	11.322
629.92	11.273
630.25	11.260
630.58	11.235
630.91	11.229
631.23	11.211
631.56	11.193
631.89	11.211
632.21	11.200
632.54	11.186
632.87	11.172
