OOIBase32 Version 2.0.0.6 Data File
++++++++++++++++++++++++++++++++++++
Date: 01-22-2012, 21:31:02
User: Valued Ocean Optics Customer
Spectrometer Serial Number: USB2E2917
Spectrometer Channel: Master
Integration Time (msec): 4
Spectra Averaged: 10
Boxcar Smoothing: 5
Correct for Electrical Dark: Enabled
Time Normalized: Disabled
Dual-beam Reference: Disabled
Reference Channel: Master
Temperature: Not acquired
Spectrometer Type: S2000
ADC Type: USB2000
Number of Pixels in File: 2048
Graph Title: 
>>>>>Begin Spectral Data<<<<<
180.30	0.000
180.67	0.000
181.03	-39.027
181.40	65.160
181.77	-346.221
182.14	65.161
182.51	445.558
182.88	125.652
183.25	-5.456
183.62	60.482
183.99	37.640
184.36	154.450
184.73	130.805
185.10	1573.880
185.46	-77.229
185.83	115.669
186.20	61.591
186.57	199.959
186.94	82.477
187.31	19.467
187.68	-2478.748
188.05	-59.485
188.42	19.586
188.78	121.143
189.15	94.147
189.52	81.645
189.89	53.221
190.26	48.223
190.63	64.647
191.00	54.060
191.37	54.143
191.73	60.687
192.10	13.233
192.47	15.435
192.84	-90.898
193.21	-238.878
193.58	-268.095
193.94	-188.189
194.31	-71.420
194.68	-59.413
195.05	-74.009
195.42	-105.354
195.79	-87.770
196.15	-37.734
196.52	-20.734
196.89	-23.847
197.26	-31.782
197.63	-41.408
198.00	-34.929
198.36	-106.529
198.73	-132.966
199.10	-25.144
199.47	13.278
199.84	21.477
200.20	-15.194
200.57	-21.253
200.94	2.978
201.31	11.400
201.68	14.007
202.04	6.462
202.41	4.076
202.78	18.363
203.15	25.712
203.51	16.332
203.88	25.554
204.25	29.041
204.62	37.136
204.98	36.484
205.35	28.864
205.72	18.607
206.09	-22.884
206.46	-5.819
206.82	-67.431
207.19	-96.469
207.56	-108.602
207.92	-167.320
208.29	-115.380
208.66	-111.448
209.03	-127.903
209.39	-58.060
209.76	-23.047
210.13	14.360
210.50	13.490
210.86	-2.154
211.23	-4.626
211.60	-1.160
211.96	-4.774
212.33	-69.022
212.70	3417.100
213.07	295.433
213.43	355.256
213.80	1362.275
214.17	352.406
214.53	1874.857
214.90	-201.111
215.27	-106.382
215.63	-171.227
216.00	-117.881
216.37	-44.419
216.74	-22.780
217.10	-12.335
217.47	-13.511
217.84	-14.305
218.20	0.150
218.57	11.461
218.94	3.517
219.30	2.251
219.67	7.848
220.04	9.732
220.40	14.700
220.77	4.871
221.13	3.545
221.50	5.005
221.87	3.932
222.23	4.154
222.60	-1.477
222.97	-5.927
223.33	-15.217
223.70	-15.498
224.07	-11.982
224.43	-15.797
224.80	-6.432
225.16	-10.615
225.53	-9.394
225.90	-7.248
226.26	-6.568
226.63	-8.933
226.99	-6.599
227.36	-2.473
227.73	-2.017
228.09	-2.483
228.46	-0.494
228.82	-3.556
229.19	-0.663
229.56	-1.498
229.92	-0.700
230.29	0.182
230.65	2.803
231.02	0.477
231.38	-1.728
231.75	-2.412
232.12	-2.525
232.48	-5.247
232.85	-2.172
233.21	-3.587
233.58	-1.400
233.94	-3.361
234.31	-3.407
234.68	-4.592
235.04	-0.941
235.41	-1.242
235.77	-1.402
236.14	-0.925
236.50	1.766
236.87	3.143
237.23	3.777
237.60	2.208
237.96	2.216
238.33	1.259
238.69	2.603
239.06	0.864
239.42	0.624
239.79	0.606
240.15	1.104
240.52	0.808
240.88	-0.359
241.25	-0.035
241.61	-0.555
241.98	-0.439
242.34	-0.141
242.71	-0.391
243.07	0.163
243.44	0.897
243.80	1.453
244.17	0.767
244.53	0.205
244.90	0.811
245.26	0.599
245.63	0.850
245.99	0.905
246.36	0.843
246.72	0.531
247.09	0.486
247.45	0.236
247.81	0.185
248.18	0.523
248.54	1.241
248.91	0.897
249.27	0.806
249.64	1.341
250.00	1.734
250.36	1.952
250.73	1.800
251.09	1.811
251.46	1.336
251.82	1.432
252.19	1.551
252.55	1.026
252.91	1.311
253.28	1.461
253.64	0.842
254.01	0.223
254.37	0.448
254.73	0.955
255.10	0.696
255.46	1.361
255.83	0.997
256.19	1.037
256.55	1.130
256.92	0.967
257.28	1.060
257.65	1.335
258.01	1.371
258.37	1.144
258.74	1.031
259.10	1.226
259.46	1.011
259.83	1.269
260.19	1.212
260.55	1.086
260.92	1.034
261.28	1.029
261.64	1.034
262.01	0.800
262.37	0.613
262.73	1.082
263.10	0.936
263.46	1.089
263.82	0.571
264.19	0.571
264.55	0.786
264.91	1.031
265.28	1.071
265.64	0.890
266.00	1.018
266.37	1.595
266.73	1.458
267.09	1.338
267.46	1.060
267.82	1.235
268.18	1.198
268.54	1.075
268.91	1.216
269.27	1.115
269.63	0.903
270.00	1.088
270.36	0.986
270.72	0.813
271.08	0.705
271.45	1.123
271.81	1.091
272.17	1.449
272.53	1.631
272.90	1.552
273.26	1.527
273.62	1.983
273.98	2.206
274.35	2.236
274.71	2.232
275.07	2.714
275.43	2.811
275.80	2.747
276.16	2.674
276.52	2.638
276.88	2.611
277.25	2.193
277.61	2.092
277.97	1.914
278.33	1.812
278.69	1.985
279.06	1.718
279.42	1.364
279.78	1.506
280.14	1.452
280.50	1.574
280.87	1.584
281.23	2.066
281.59	1.958
281.95	1.848
282.31	1.877
282.68	1.713
283.04	1.630
283.40	1.507
283.76	1.349
284.12	1.218
284.48	1.102
284.85	0.968
285.21	0.757
285.57	0.755
285.93	0.802
286.29	0.622
286.65	0.751
287.02	0.962
287.38	1.133
287.74	1.308
288.10	1.197
288.46	1.049
288.82	1.030
289.18	0.779
289.54	0.739
289.91	0.717
290.27	0.928
290.63	0.925
290.99	1.022
291.35	1.111
291.71	0.909
292.07	1.084
292.43	1.265
292.79	1.462
293.16	1.812
293.52	1.944
293.88	2.090
294.24	2.098
294.60	2.297
294.96	2.189
295.32	2.164
295.68	2.289
296.04	2.514
296.40	2.661
296.76	2.699
297.12	2.829
297.49	2.937
297.85	3.125
298.21	3.121
298.57	3.032
298.93	3.304
299.29	3.635
299.65	4.100
300.01	4.157
300.37	4.382
300.73	4.707
301.09	4.879
301.45	5.039
301.81	5.231
302.17	5.714
302.53	5.990
302.89	6.103
303.25	6.242
303.61	6.245
303.97	6.508
304.33	6.717
304.69	7.063
305.05	7.450
305.41	7.816
305.77	7.998
306.13	8.235
306.49	8.611
306.85	9.027
307.21	9.129
307.57	9.413
307.93	9.484
308.29	9.692
308.65	9.601
309.01	9.647
309.37	9.740
309.73	9.905
310.09	9.843
310.45	9.972
310.81	10.008
311.17	10.241
311.53	10.342
311.89	10.664
312.25	10.798
312.61	11.111
312.96	11.341
313.32	11.464
313.68	11.378
314.04	11.646
314.40	11.663
314.76	11.709
315.12	11.823
315.48	11.875
315.84	11.602
316.20	11.609
316.56	11.615
316.92	11.430
317.27	11.499
317.63	11.606
317.99	11.633
318.35	11.635
318.71	11.717
319.07	11.753
319.43	11.582
319.79	11.656
320.15	11.636
320.50	11.720
320.86	11.820
321.22	11.747
321.58	11.772
321.94	11.710
322.30	11.710
322.66	11.634
323.01	11.509
323.37	11.686
323.73	11.705
324.09	11.893
324.45	11.743
324.81	11.712
325.17	11.619
325.52	11.631
325.88	11.531
326.24	11.500
326.60	11.570
326.96	11.605
327.31	11.367
327.67	11.391
328.03	11.189
328.39	11.102
328.75	11.061
329.11	11.130
329.46	11.096
329.82	11.140
330.18	11.126
330.54	10.916
330.90	10.885
331.25	10.972
331.61	10.967
331.97	10.793
332.33	10.820
332.68	10.894
333.04	10.799
333.40	10.829
333.76	10.778
334.11	10.752
334.47	10.955
334.83	10.835
335.19	10.850
335.54	10.766
335.90	10.767
336.26	10.581
336.62	10.595
336.97	10.570
337.33	10.432
337.69	10.460
338.05	10.551
338.40	10.415
338.76	10.496
339.12	10.411
339.48	10.322
339.83	10.399
340.19	10.533
340.55	10.446
340.90	10.429
341.26	10.429
341.62	10.317
341.97	10.206
342.33	10.112
342.69	10.089
343.04	9.970
343.40	9.947
343.76	9.858
344.12	9.824
344.47	9.716
344.83	9.719
345.19	9.730
345.54	9.787
345.90	9.703
346.26	9.742
346.61	9.627
346.97	9.775
347.32	9.812
347.68	9.853
348.04	9.814
348.39	9.862
348.75	9.786
349.11	9.701
349.46	9.604
349.82	9.547
350.18	9.487
350.53	9.595
350.89	9.522
351.24	9.479
351.60	9.447
351.96	9.465
352.31	9.398
352.67	9.410
353.02	9.508
353.38	9.570
353.74	9.621
354.09	9.613
354.45	9.482
354.80	9.429
355.16	9.424
355.52	9.316
355.87	9.203
356.23	9.233
356.58	9.227
356.94	9.112
357.29	8.966
357.65	8.914
358.00	8.857
358.36	8.817
358.72	8.748
359.07	8.678
359.43	8.709
359.78	8.761
360.14	8.751
360.49	8.711
360.85	8.652
361.20	8.678
361.56	8.623
361.91	8.655
362.27	8.691
362.62	8.703
362.98	8.743
363.33	8.660
363.69	8.600
364.04	8.509
364.40	8.490
364.75	8.490
365.11	8.495
365.46	8.488
365.82	8.403
366.17	8.324
366.53	8.298
366.88	8.262
367.24	8.275
367.59	8.215
367.95	8.188
368.30	8.145
368.66	8.070
369.01	8.062
369.37	8.021
369.72	8.010
370.08	8.040
370.43	8.001
370.78	8.002
371.14	7.954
371.49	7.975
371.85	7.962
372.20	7.977
372.56	8.025
372.91	7.942
373.26	7.971
373.62	7.911
373.97	7.864
374.33	7.824
374.68	7.791
375.03	7.756
375.39	7.653
375.74	7.602
376.10	7.555
376.45	7.547
376.80	7.536
377.16	7.429
377.51	7.465
377.87	7.466
378.22	7.481
378.57	7.405
378.93	7.379
379.28	7.409
379.63	7.423
379.99	7.406
380.34	7.322
380.70	7.313
381.05	7.327
381.40	7.221
381.76	7.143
382.11	7.069
382.46	7.072
382.82	7.014
383.17	6.975
383.52	6.892
383.88	6.840
384.23	6.896
384.58	6.788
384.94	6.738
385.29	6.788
385.64	6.750
385.99	6.723
386.35	6.652
386.70	6.653
387.05	6.619
387.41	6.634
387.76	6.572
388.11	6.463
388.47	6.455
388.82	6.459
389.17	6.390
389.52	6.374
389.88	6.358
390.23	6.353
390.58	6.297
390.93	6.272
391.29	6.243
391.64	6.261
391.99	6.229
392.34	6.191
392.70	6.149
393.05	6.074
393.40	6.028
393.75	5.982
394.11	5.899
394.46	5.853
394.81	5.805
395.16	5.740
395.52	5.694
395.87	5.639
396.22	5.604
396.57	5.530
396.92	5.504
397.28	5.449
397.63	5.419
397.98	5.449
398.33	5.441
398.68	5.424
399.04	5.364
399.39	5.271
399.74	5.243
400.09	5.214
400.44	5.156
400.80	5.126
401.15	5.105
401.50	5.085
401.85	5.013
402.20	4.981
402.55	4.924
402.90	4.909
403.26	4.926
403.61	4.917
403.96	4.876
404.31	4.885
404.66	4.872
405.01	4.857
405.36	4.807
405.72	4.795
406.07	4.763
406.42	4.782
406.77	4.762
407.12	4.733
407.47	4.699
407.82	4.691
408.17	4.639
408.53	4.634
408.88	4.606
409.23	4.586
409.58	4.570
409.93	4.565
410.28	4.490
410.63	4.480
410.98	4.427
411.33	4.396
411.68	4.386
412.03	4.358
412.38	4.312
412.73	4.283
413.09	4.258
413.44	4.231
413.79	4.200
414.14	4.229
414.49	4.163
414.84	4.158
415.19	4.136
415.54	4.110
415.89	4.090
416.24	4.062
416.59	4.022
416.94	4.018
417.29	3.995
417.64	3.966
417.99	3.926
418.34	3.923
418.69	3.884
419.04	3.867
419.39	3.846
419.74	3.835
420.09	3.826
420.44	3.819
420.79	3.790
421.14	3.760
421.49	3.765
421.84	3.751
422.19	3.741
422.54	3.753
422.89	3.745
423.24	3.733
423.59	3.736
423.94	3.730
424.29	3.733
424.64	3.724
424.99	3.764
425.34	3.745
425.68	3.748
426.03	3.771
426.38	3.769
426.73	3.779
427.08	3.780
427.43	3.772
427.78	3.780
428.13	3.776
428.48	3.816
428.83	3.781
429.18	3.774
429.53	3.781
429.87	3.759
430.22	3.749
430.57	3.748
430.92	3.744
431.27	3.745
431.62	3.725
431.97	3.712
432.32	3.686
432.67	3.721
433.01	3.741
433.36	3.732
433.71	3.755
434.06	3.774
434.41	3.780
434.76	3.806
435.11	3.827
435.45	3.844
435.80	3.860
436.15	3.883
436.50	3.871
436.85	3.882
437.20	3.881
437.54	3.861
437.89	3.864
438.24	3.874
438.59	3.893
438.94	3.890
439.29	3.899
439.63	3.911
439.98	3.914
440.33	3.914
440.68	3.923
441.03	3.944
441.37	3.973
441.72	3.988
442.07	4.000
442.42	3.992
442.76	4.013
443.11	4.027
443.46	4.030
443.81	4.044
444.16	4.054
444.50	4.048
444.85	4.057
445.20	4.073
445.55	4.069
445.89	4.067
446.24	4.077
446.59	4.070
446.94	4.067
447.28	4.071
447.63	4.071
447.98	4.068
448.32	4.063
448.67	4.047
449.02	4.011
449.37	4.014
449.71	4.026
450.06	4.044
450.41	4.052
450.75	4.052
451.10	4.068
451.45	4.078
451.79	4.096
452.14	4.129
452.49	4.141
452.84	4.149
453.18	4.150
453.53	4.146
453.88	4.147
454.22	4.153
454.57	4.168
454.92	4.157
455.26	4.140
455.61	4.130
455.95	4.116
456.30	4.127
456.65	4.131
456.99	4.125
457.34	4.131
457.69	4.132
458.03	4.115
458.38	4.128
458.73	4.154
459.07	4.166
459.42	4.180
459.76	4.200
460.11	4.228
460.46	4.248
460.80	4.273
461.15	4.291
461.49	4.295
461.84	4.339
462.19	4.356
462.53	4.359
462.88	4.388
463.22	4.399
463.57	4.413
463.91	4.412
464.26	4.449
464.61	4.448
464.95	4.461
465.30	4.492
465.64	4.510
465.99	4.512
466.33	4.527
466.68	4.521
467.02	4.536
467.37	4.546
467.71	4.544
468.06	4.539
468.41	4.549
468.75	4.547
469.10	4.543
469.44	4.552
469.79	4.550
470.13	4.547
470.48	4.563
470.82	4.575
471.17	4.575
471.51	4.570
471.86	4.563
472.20	4.555
472.55	4.545
472.89	4.532
473.23	4.502
473.58	4.478
473.92	4.447
474.27	4.415
474.61	4.392
474.96	4.358
475.30	4.353
475.65	4.336
475.99	4.340
476.34	4.318
476.68	4.296
477.02	4.295
477.37	4.299
477.71	4.295
478.06	4.294
478.40	4.262
478.75	4.273
479.09	4.279
479.43	4.297
479.78	4.312
480.12	4.351
480.47	4.392
480.81	4.417
481.15	4.454
481.50	4.493
481.84	4.549
482.19	4.615
482.53	4.663
482.87	4.671
483.22	4.646
483.56	4.596
483.90	4.525
484.25	4.472
484.59	4.447
484.94	4.408
485.28	4.369
485.62	4.308
485.97	4.241
486.31	4.173
486.65	4.146
487.00	4.152
487.34	4.190
487.68	4.247
488.03	4.280
488.37	4.279
488.71	4.282
489.06	4.285
489.40	4.282
489.74	4.275
490.09	4.288
490.43	4.295
490.77	4.298
491.11	4.315
491.46	4.323
491.80	4.327
492.14	4.328
492.49	4.343
492.83	4.341
493.17	4.350
493.51	4.360
493.86	4.366
494.20	4.378
494.54	4.400
494.88	4.413
495.23	4.433
495.57	4.450
495.91	4.479
496.25	4.497
496.60	4.531
496.94	4.557
497.28	4.589
497.62	4.598
497.97	4.628
498.31	4.669
498.65	4.698
498.99	4.724
499.33	4.757
499.68	4.797
500.02	4.828
500.36	4.859
500.70	4.901
501.04	4.948
501.39	5.004
501.73	5.028
502.07	5.035
502.41	5.068
502.75	5.099
503.09	5.150
503.44	5.172
503.78	5.196
504.12	5.239
504.46	5.273
504.80	5.309
505.14	5.347
505.49	5.394
505.83	5.437
506.17	5.471
506.51	5.522
506.85	5.544
507.19	5.585
507.53	5.634
507.87	5.656
508.22	5.712
508.56	5.746
508.90	5.777
509.24	5.806
509.58	5.855
509.92	5.885
510.26	5.897
510.60	5.925
510.94	5.949
511.28	5.967
511.63	6.012
511.97	6.021
512.31	6.044
512.65	6.071
512.99	6.112
513.33	6.128
513.67	6.137
514.01	6.170
514.35	6.207
514.69	6.256
515.03	6.285
515.37	6.285
515.71	6.315
516.05	6.322
516.39	6.317
516.73	6.305
517.07	6.318
517.41	6.338
517.75	6.355
518.09	6.362
518.43	6.359
518.77	6.357
519.11	6.363
519.45	6.360
519.79	6.375
520.13	6.391
520.47	6.412
520.81	6.410
521.15	6.407
521.49	6.402
521.83	6.377
522.17	6.356
522.51	6.360
522.85	6.377
523.19	6.387
523.53	6.392
523.87	6.417
524.21	6.434
524.55	6.454
524.89	6.478
525.23	6.494
525.57	6.514
525.91	6.532
526.25	6.532
526.58	6.536
526.92	6.541
527.26	6.546
527.60	6.537
527.94	6.527
528.28	6.510
528.62	6.489
528.96	6.472
529.30	6.454
529.64	6.430
529.97	6.415
530.31	6.389
530.65	6.355
530.99	6.327
531.33	6.301
531.67	6.279
532.01	6.271
532.35	6.269
532.68	6.253
533.02	6.245
533.36	6.229
533.70	6.217
534.04	6.206
534.38	6.187
534.71	6.175
535.05	6.164
535.39	6.142
535.73	6.106
536.07	6.076
536.41	6.061
536.74	6.050
537.08	6.052
537.42	6.046
537.76	6.036
538.10	6.048
538.43	6.042
538.77	6.037
539.11	6.048
539.45	6.058
539.79	6.056
540.12	6.049
540.46	6.036
540.80	6.011
541.14	5.991
541.47	5.985
541.81	5.963
542.15	5.950
542.49	5.936
542.82	5.916
543.16	5.890
543.50	5.888
543.84	5.871
544.17	5.852
544.51	5.859
544.85	5.867
545.18	5.840
545.52	5.842
545.86	5.849
546.20	5.845
546.53	5.833
546.87	5.836
547.21	5.808
547.54	5.814
547.88	5.822
548.22	5.811
548.55	5.783
548.89	5.784
549.23	5.777
549.56	5.766
549.90	5.749
550.24	5.742
550.57	5.739
550.91	5.744
551.25	5.725
551.58	5.716
551.92	5.718
552.26	5.743
552.59	5.741
552.93	5.726
553.27	5.701
553.60	5.713
553.94	5.717
554.27	5.725
554.61	5.732
554.95	5.769
555.28	5.766
555.62	5.765
555.95	5.752
556.29	5.764
556.63	5.787
556.96	5.794
557.30	5.814
557.63	5.805
557.97	5.801
558.31	5.780
558.64	5.748
558.98	5.765
559.31	5.770
559.65	5.760
559.98	5.749
560.32	5.737
560.65	5.720
560.99	5.674
561.33	5.675
561.66	5.668
562.00	5.670
562.33	5.655
562.67	5.642
563.00	5.635
563.34	5.652
563.67	5.658
564.01	5.658
564.34	5.683
564.68	5.725
565.01	5.725
565.35	5.730
565.68	5.742
566.02	5.770
566.35	5.763
566.69	5.758
567.02	5.731
567.36	5.746
567.69	5.718
568.03	5.705
568.36	5.684
568.69	5.711
569.03	5.723
569.36	5.718
569.70	5.723
570.03	5.732
570.37	5.741
570.70	5.770
571.04	5.780
571.37	5.796
571.70	5.801
572.04	5.794
572.37	5.775
572.71	5.762
573.04	5.768
573.37	5.771
573.71	5.778
574.04	5.784
574.38	5.791
574.71	5.767
575.04	5.785
575.38	5.797
575.71	5.819
576.05	5.832
576.38	5.858
576.71	5.864
577.05	5.909
577.38	5.939
577.71	5.958
578.05	5.967
578.38	5.994
578.71	5.990
579.05	6.004
579.38	6.013
579.71	6.032
580.05	6.029
580.38	6.072
580.71	6.029
581.05	6.021
581.38	6.040
581.71	6.037
582.05	6.056
582.38	6.064
582.71	6.076
583.04	6.107
583.38	6.113
583.71	6.118
584.04	6.114
584.38	6.140
584.71	6.151
585.04	6.150
585.37	6.160
585.71	6.166
586.04	6.179
586.37	6.186
586.70	6.181
587.04	6.213
587.37	6.242
587.70	6.226
588.03	6.206
588.37	6.198
588.70	6.225
589.03	6.247
589.36	6.272
589.69	6.269
590.03	6.257
590.36	6.281
590.69	6.266
591.02	6.270
591.35	6.271
591.69	6.298
592.02	6.320
592.35	6.319
592.68	6.313
593.01	6.308
593.35	6.333
593.68	6.355
594.01	6.351
594.34	6.374
594.67	6.371
595.00	6.383
595.34	6.365
595.67	6.351
596.00	6.344
596.33	6.362
596.66	6.354
596.99	6.344
597.32	6.340
597.65	6.322
597.99	6.299
598.32	6.275
598.65	6.266
598.98	6.283
599.31	6.311
599.64	6.330
599.97	6.333
600.30	6.331
600.63	6.350
600.96	6.388
601.30	6.386
601.63	6.387
601.96	6.407
602.29	6.447
602.62	6.463
602.95	6.457
603.28	6.452
603.61	6.457
603.94	6.468
604.27	6.484
604.60	6.470
604.93	6.509
605.26	6.515
605.59	6.538
605.92	6.534
606.25	6.547
606.58	6.545
606.91	6.516
607.24	6.507
607.57	6.490
607.90	6.481
608.23	6.445
608.56	6.411
608.89	6.401
609.22	6.370
609.55	6.351
609.88	6.334
610.21	6.364
610.54	6.389
610.87	6.372
611.20	6.373
611.53	6.336
611.86	6.347
612.19	6.359
612.52	6.375
612.85	6.380
613.18	6.360
613.51	6.306
613.84	6.257
614.17	6.245
614.49	6.246
614.82	6.266
615.15	6.276
615.48	6.311
615.81	6.296
616.14	6.258
616.47	6.259
616.80	6.267
617.13	6.333
617.46	6.359
617.78	6.284
618.11	6.308
618.44	6.303
618.77	6.310
619.10	6.258
619.43	6.260
619.76	6.268
620.09	6.238
620.41	6.245
620.74	6.244
621.07	6.198
621.40	6.293
621.73	6.294
622.06	6.281
622.38	6.302
622.71	6.322
623.04	6.327
623.37	6.336
623.70	6.357
624.02	6.346
624.35	6.305
624.68	6.337
625.01	6.313
625.34	6.257
625.66	6.243
625.99	6.229
626.32	6.201
626.65	6.176
626.98	6.188
627.30	6.167
627.63	6.143
627.96	6.139
628.29	6.105
628.61	6.063
628.94	6.083
629.27	6.072
629.60	6.039
629.92	6.056
630.25	6.050
630.58	5.991
630.91	5.989
631.23	5.977
631.56	5.955
631.89	5.938
632.21	5.983
632.54	5.975
632.87	5.992
633.19	5.969
633.52	5.947
633.85	5.944
634.18	5.952
634.50	5.937
634.83	5.928
635.16	5.937
635.48	5.956
635.81	5.920
636.14	5.886
636.46	5.854
636.79	5.877
637.11	5.851
637.44	5.820
637.77	5.787
638.09	5.754
638.42	5.729
638.75	5.663
639.07	5.620
639.40	5.605
639.73	5.632
640.05	5.594
640.38	5.571
640.70	5.568
641.03	5.570
641.36	5.622
641.68	5.636
642.01	5.657
642.33	5.720
642.66	5.705
642.98	5.680
643.31	5.610
643.64	5.666
643.96	5.658
644.29	5.695
644.61	5.687
644.94	5.659
645.26	5.684
645.59	5.703
645.91	5.690
646.24	5.698
646.56	5.690
646.89	5.783
647.22	5.753
647.54	5.732
647.87	5.710
648.19	5.694
648.52	5.661
648.84	5.582
649.17	5.553
649.49	5.515
649.82	5.525
650.14	5.508
650.47	5.449
650.79	5.440
651.11	5.433
651.44	5.416
651.76	5.466
652.09	5.486
652.41	5.546
652.74	5.516
653.06	5.515
653.39	5.516
653.71	5.560
654.04	5.582
654.36	5.565
654.68	5.583
655.01	5.586
655.33	5.551
655.66	5.547
655.98	5.536
