OOIBase32 Version 2.0.0.6 Data File
++++++++++++++++++++++++++++++++++++
Date: 01-22-2012, 21:15:40
User: Valued Ocean Optics Customer
Spectrometer Serial Number: USB2E2917
Spectrometer Channel: Master
Integration Time (msec): 4
Spectra Averaged: 10
Boxcar Smoothing: 5
Correct for Electrical Dark: Enabled
Time Normalized: Disabled
Dual-beam Reference: Disabled
Reference Channel: Master
Temperature: Not acquired
Spectrometer Type: S2000
ADC Type: USB2000
Number of Pixels in File: 2048
Graph Title: 
>>>>>Begin Spectral Data<<<<<
180.30	0.000
180.67	0.000
181.03	-132.502
181.40	85.017
181.77	20.736
182.14	-130.686
182.51	853.376
182.88	66.963
183.25	147.514
183.62	47.283
183.99	21.229
184.36	10.540
184.73	147.515
185.10	977.600
185.46	132.455
185.83	73.333
186.20	79.635
186.57	210.663
186.94	88.224
187.31	98.817
187.68	4964.926
188.05	554.505
188.42	362.431
188.78	-129.021
189.15	8.437
189.52	9.456
189.89	30.981
190.26	24.524
190.63	17.194
191.00	19.618
191.37	14.383
191.73	59.076
192.10	42.414
192.47	-1.040
192.84	-85.695
193.21	-120.258
193.58	65.450
193.94	121.527
194.31	129.974
194.68	83.247
195.05	64.198
195.42	54.776
195.79	28.264
196.15	43.754
196.52	78.378
196.89	75.427
197.26	40.382
197.63	6.279
198.00	2.255
198.36	-46.703
198.73	-191.313
199.10	-114.924
199.47	-14.701
199.84	-2.515
200.20	-34.904
200.57	-43.722
200.94	-9.888
201.31	11.621
201.68	20.331
202.04	25.025
202.41	27.958
202.78	31.537
203.15	28.464
203.51	26.905
203.88	25.575
204.25	9.748
204.62	8.642
204.98	9.251
205.35	-11.008
205.72	-34.793
206.09	-126.704
206.46	-86.088
206.82	-108.499
207.19	-89.327
207.56	-90.097
207.92	-77.350
208.29	-21.685
208.66	-22.485
209.03	-42.103
209.39	-1.636
209.76	13.327
210.13	37.539
210.50	46.274
210.86	36.044
211.23	12.396
211.60	-32.616
211.96	-74.788
212.33	-204.820
212.70	7831.990
213.07	666.763
213.43	572.163
213.80	1727.874
214.17	361.350
214.53	2017.359
214.90	-279.237
215.27	-105.927
215.63	-159.742
216.00	-68.147
216.37	-16.495
216.74	2.882
217.10	4.378
217.47	1.089
217.84	0.739
218.20	-6.048
218.57	11.479
218.94	6.389
219.30	3.955
219.67	15.232
220.04	10.673
220.40	8.303
220.77	5.970
221.13	11.094
221.50	14.119
221.87	7.030
222.23	15.379
222.60	10.794
222.97	12.215
223.33	1.685
223.70	-4.706
224.07	-3.763
224.43	-3.252
224.80	0.711
225.16	-3.053
225.53	-2.519
225.90	-1.300
226.26	0.843
226.63	-0.584
226.99	-1.356
227.36	-0.195
227.73	0.326
228.09	-0.174
228.46	1.416
228.82	-0.691
229.19	0.385
229.56	-1.671
229.92	-0.675
230.29	-1.999
230.65	-1.992
231.02	-4.192
231.38	-3.842
231.75	-5.023
232.12	-3.210
232.48	-6.504
232.85	-4.236
233.21	-5.061
233.58	-2.084
233.94	-2.747
234.31	-1.563
234.68	-3.391
235.04	0.531
235.41	0.194
235.77	1.663
236.14	1.113
236.50	3.536
236.87	4.758
237.23	6.881
237.60	5.131
237.96	4.629
238.33	2.940
238.69	4.326
239.06	3.000
239.42	2.852
239.79	3.074
240.15	3.181
240.52	3.425
240.88	2.741
241.25	1.425
241.61	1.440
241.98	1.445
242.34	1.768
242.71	1.760
243.07	2.313
243.44	2.425
243.80	2.432
244.17	1.940
244.53	1.554
244.90	1.849
245.26	2.011
245.63	2.083
245.99	2.185
246.36	2.244
246.72	2.101
247.09	1.943
247.45	2.025
247.81	2.092
248.18	2.428
248.54	2.363
248.91	2.027
249.27	1.657
249.64	1.910
250.00	1.930
250.36	2.212
250.73	1.514
251.09	1.037
251.46	0.752
251.82	0.385
252.19	-0.087
252.55	0.195
252.91	0.489
253.28	0.913
253.64	0.781
254.01	0.911
254.37	0.868
254.73	1.940
255.10	2.297
255.46	2.559
255.83	2.461
256.19	2.592
256.55	2.591
256.92	2.551
257.28	2.439
257.65	2.374
258.01	2.260
258.37	2.118
258.74	2.051
259.10	2.242
259.46	2.261
259.83	2.452
260.19	2.551
260.55	2.516
260.92	2.376
261.28	2.505
261.64	2.642
262.01	2.397
262.37	2.253
262.73	2.315
263.10	1.717
263.46	2.219
263.82	1.892
264.19	1.553
264.55	1.439
264.91	1.745
265.28	2.033
265.64	1.940
266.00	2.277
266.37	2.605
266.73	2.737
267.09	2.710
267.46	1.836
267.82	1.940
268.18	1.982
268.54	1.848
268.91	1.943
269.27	1.704
269.63	1.764
270.00	1.614
270.36	1.694
270.72	1.503
271.08	1.723
271.45	2.138
271.81	2.128
272.17	2.631
272.53	2.952
272.90	2.779
273.26	2.627
273.62	2.489
273.98	2.546
274.35	2.427
274.71	2.247
275.07	2.262
275.43	2.202
275.80	2.259
276.16	1.778
276.52	1.556
276.88	1.558
277.25	1.463
277.61	1.686
277.97	1.903
278.33	1.968
278.69	2.198
279.06	2.158
279.42	2.216
279.78	2.220
280.14	2.348
280.50	2.544
280.87	2.727
281.23	2.921
281.59	2.754
281.95	2.621
282.31	2.479
282.68	2.548
283.04	2.498
283.40	2.221
283.76	2.217
284.12	2.195
284.48	2.051
284.85	1.699
285.21	1.647
285.57	1.728
285.93	1.727
286.29	1.658
286.65	1.530
287.02	1.676
287.38	1.865
287.74	1.928
288.10	1.827
288.46	1.930
288.82	2.061
289.18	1.822
289.54	1.694
289.91	1.631
290.27	1.908
290.63	2.043
290.99	1.926
291.35	1.845
291.71	1.701
292.07	1.685
292.43	1.491
292.79	1.546
293.16	1.947
293.52	2.093
293.88	2.112
294.24	1.884
294.60	1.875
294.96	1.890
295.32	1.977
295.68	1.801
296.04	1.903
296.40	1.947
296.76	1.955
297.12	1.988
297.49	1.977
297.85	2.162
298.21	2.297
298.57	2.105
298.93	2.191
299.29	2.192
299.65	2.673
300.01	2.663
300.37	2.722
300.73	2.863
301.09	2.902
301.45	2.813
301.81	2.803
302.17	2.750
302.53	2.901
302.89	2.827
303.25	2.734
303.61	2.540
303.97	2.672
304.33	2.724
304.69	2.822
305.05	2.854
305.41	3.068
305.77	3.080
306.13	3.235
306.49	3.306
306.85	3.413
307.21	3.470
307.57	3.473
307.93	3.375
308.29	3.472
308.65	3.250
309.01	3.145
309.37	2.915
309.73	2.906
310.09	2.755
310.45	2.756
310.81	2.735
311.17	2.726
311.53	2.778
311.89	2.775
312.25	2.622
312.61	2.750
312.96	2.820
313.32	2.993
313.68	3.012
314.04	3.055
314.40	2.938
314.76	2.955
315.12	2.934
315.48	2.922
315.84	2.812
316.20	2.803
316.56	2.768
316.92	2.607
317.27	2.591
317.63	2.514
317.99	2.496
318.35	2.490
318.71	2.539
319.07	2.668
319.43	2.563
319.79	2.700
320.15	2.761
320.50	2.852
320.86	2.908
321.22	2.936
321.58	2.796
321.94	2.837
322.30	3.054
322.66	3.117
323.01	3.069
323.37	3.328
323.73	3.131
324.09	3.289
324.45	3.290
324.81	3.423
325.17	3.340
325.52	3.502
325.88	3.540
326.24	3.429
326.60	3.324
326.96	3.417
327.31	3.158
327.67	3.379
328.03	3.310
328.39	3.264
328.75	3.263
329.11	3.439
329.46	3.401
329.82	3.434
330.18	3.457
330.54	3.494
330.90	3.440
331.25	3.517
331.61	3.524
331.97	3.505
332.33	3.402
332.68	3.451
333.04	3.398
333.40	3.526
333.76	3.567
334.11	3.628
334.47	3.712
334.83	3.689
335.19	3.746
335.54	3.747
335.90	3.795
336.26	3.876
336.62	3.928
336.97	3.878
337.33	3.844
337.69	3.843
338.05	3.890
338.40	3.810
338.76	3.916
339.12	3.897
339.48	3.841
339.83	3.808
340.19	3.862
340.55	3.808
340.90	3.854
341.26	3.934
341.62	3.890
341.97	3.848
342.33	3.839
342.69	3.857
343.04	3.888
343.40	3.999
343.76	4.037
344.12	4.064
344.47	3.973
344.83	4.039
345.19	4.059
345.54	4.096
345.90	4.072
346.26	4.123
346.61	4.014
346.97	4.035
347.32	4.010
347.68	4.078
348.04	4.030
348.39	4.129
348.75	4.073
349.11	3.921
349.46	3.932
349.82	3.949
350.18	3.973
350.53	4.116
350.89	4.023
351.24	4.041
351.60	3.967
351.96	4.016
352.31	3.953
352.67	3.933
353.02	3.998
353.38	4.032
353.74	4.058
354.09	4.116
354.45	4.051
354.80	4.131
355.16	4.133
355.52	4.120
355.87	4.034
356.23	4.148
356.58	4.208
356.94	4.298
357.29	4.229
357.65	4.203
358.00	4.127
358.36	4.103
358.72	4.059
359.07	4.028
359.43	4.079
359.78	4.150
360.14	4.110
360.49	4.104
360.85	4.050
361.20	4.094
361.56	4.106
361.91	4.174
362.27	4.266
362.62	4.331
362.98	4.396
363.33	4.447
363.69	4.479
364.04	4.537
364.40	4.565
364.75	4.603
365.11	4.600
365.46	4.615
365.82	4.562
366.17	4.522
366.53	4.475
366.88	4.483
367.24	4.420
367.59	4.371
367.95	4.348
368.30	4.420
368.66	4.410
369.01	4.473
369.37	4.527
369.72	4.590
370.08	4.623
370.43	4.684
370.78	4.701
371.14	4.761
371.49	4.823
371.85	4.862
372.20	4.841
372.56	4.886
372.91	4.878
373.26	4.889
373.62	4.900
373.97	4.951
374.33	4.978
374.68	5.040
375.03	5.040
375.39	5.036
375.74	5.049
376.10	5.100
376.45	5.142
376.80	5.174
377.16	5.202
377.51	5.246
377.87	5.281
378.22	5.342
378.57	5.335
378.93	5.365
379.28	5.435
379.63	5.458
379.99	5.481
380.34	5.494
380.70	5.551
381.05	5.574
381.40	5.561
381.76	5.574
382.11	5.579
382.46	5.610
382.82	5.631
383.17	5.655
383.52	5.686
383.88	5.718
384.23	5.797
384.58	5.873
384.94	5.924
385.29	6.025
385.64	6.043
385.99	6.089
386.35	6.163
386.70	6.235
387.05	6.296
387.41	6.384
387.76	6.395
388.11	6.419
388.47	6.387
388.82	6.465
389.17	6.507
389.52	6.606
389.88	6.684
390.23	6.751
390.58	6.779
390.93	6.869
391.29	6.925
391.64	7.049
391.99	7.122
392.34	7.249
392.70	7.297
393.05	7.355
393.40	7.393
393.75	7.438
394.11	7.450
394.46	7.552
394.81	7.552
395.16	7.609
395.52	7.659
395.87	7.710
396.22	7.757
396.57	7.812
396.92	7.868
397.28	7.928
397.63	7.983
397.98	8.099
398.33	8.174
398.68	8.278
399.04	8.281
399.39	8.329
399.74	8.406
400.09	8.468
400.44	8.561
400.80	8.630
401.15	8.678
401.50	8.782
401.85	8.847
402.20	8.895
402.55	8.973
402.90	9.071
403.26	9.160
403.61	9.202
403.96	9.268
404.31	9.346
404.66	9.438
405.01	9.551
405.36	9.604
405.72	9.692
406.07	9.787
406.42	9.897
406.77	9.993
407.12	10.066
407.47	10.197
407.82	10.293
408.17	10.350
408.53	10.418
408.88	10.494
409.23	10.602
409.58	10.650
409.93	10.788
410.28	10.865
410.63	10.949
410.98	11.060
411.33	11.127
411.68	11.230
412.03	11.326
412.38	11.401
412.73	11.476
413.09	11.497
413.44	11.553
413.79	11.576
414.14	11.649
414.49	11.694
414.84	11.720
415.19	11.756
415.54	11.771
415.89	11.793
416.24	11.839
416.59	11.882
416.94	11.955
417.29	12.002
417.64	12.028
417.99	12.045
418.34	12.095
418.69	12.124
419.04	12.161
419.39	12.224
419.74	12.279
420.09	12.329
420.44	12.365
420.79	12.407
421.14	12.458
421.49	12.530
421.84	12.593
422.19	12.647
422.54	12.718
422.89	12.797
423.24	12.859
423.59	12.950
423.94	13.027
424.29	13.126
424.64	13.236
424.99	13.359
425.34	13.455
425.68	13.557
426.03	13.702
426.38	13.830
426.73	13.945
427.08	14.023
427.43	14.112
427.78	14.188
428.13	14.260
428.48	14.329
428.83	14.354
429.18	14.427
429.53	14.483
429.87	14.516
430.22	14.547
430.57	14.589
430.92	14.639
431.27	14.668
431.62	14.697
431.97	14.707
432.32	14.731
432.67	14.806
433.01	14.842
433.36	14.884
433.71	14.929
434.06	15.005
434.41	15.042
434.76	15.117
435.11	15.187
435.45	15.247
435.80	15.294
436.15	15.336
436.50	15.342
436.85	15.384
437.20	15.414
437.54	15.430
437.89	15.459
438.24	15.513
438.59	15.518
438.94	15.516
439.29	15.578
439.63	15.614
439.98	15.632
440.33	15.686
440.68	15.710
441.03	15.744
441.37	15.784
441.72	15.784
442.07	15.793
442.42	15.816
442.76	15.874
443.11	15.851
443.46	15.875
443.81	15.909
444.16	15.933
444.50	15.950
444.85	15.988
445.20	16.022
445.55	16.066
445.89	16.101
446.24	16.176
446.59	16.221
446.94	16.309
447.28	16.390
447.63	16.470
447.98	16.517
448.32	16.615
448.67	16.677
449.02	16.764
449.37	16.848
449.71	16.894
450.06	16.941
450.41	16.979
450.75	17.001
451.10	17.056
451.45	17.091
451.79	17.149
452.14	17.145
452.49	17.191
452.84	17.214
453.18	17.240
453.53	17.303
453.88	17.335
454.22	17.362
454.57	17.391
454.92	17.404
455.26	17.399
455.61	17.395
455.95	17.440
456.30	17.449
456.65	17.463
456.99	17.483
457.34	17.494
457.69	17.516
458.03	17.549
458.38	17.598
458.73	17.656
459.07	17.739
459.42	17.831
459.76	17.896
460.11	17.992
460.46	18.066
460.80	18.154
461.15	18.257
461.49	18.334
461.84	18.430
462.19	18.507
462.53	18.571
462.88	18.619
463.22	18.646
463.57	18.703
463.91	18.747
464.26	18.836
464.61	18.874
464.95	18.949
465.30	19.026
465.64	19.087
465.99	19.180
466.33	19.223
466.68	19.276
467.02	19.344
467.37	19.396
467.71	19.433
468.06	19.449
468.41	19.520
468.75	19.561
469.10	19.610
469.44	19.650
469.79	19.670
470.13	19.737
470.48	19.772
470.82	19.829
471.17	19.868
471.51	19.922
471.86	19.994
472.20	20.004
472.55	20.002
472.89	20.032
473.23	20.040
473.58	20.033
473.92	20.032
474.27	20.077
474.61	20.096
474.96	20.096
475.30	20.116
475.65	20.119
475.99	20.166
476.34	20.187
476.68	20.197
477.02	20.221
477.37	20.252
477.71	20.258
478.06	20.255
478.40	20.254
478.75	20.307
479.09	20.372
479.43	20.455
479.78	20.580
480.12	20.736
480.47	20.905
480.81	21.108
481.15	21.295
481.50	21.504
481.84	21.769
482.19	22.066
482.53	22.276
482.87	22.345
483.22	22.256
483.56	22.011
483.90	21.745
484.25	21.557
484.59	21.433
484.94	21.281
485.28	21.118
485.62	20.889
485.97	20.600
486.31	20.384
486.65	20.315
487.00	20.437
487.34	20.718
487.68	21.008
488.03	21.185
488.37	21.236
488.71	21.302
489.06	21.348
489.40	21.375
489.74	21.436
490.09	21.492
490.43	21.547
490.77	21.568
491.11	21.612
491.46	21.679
491.80	21.718
492.14	21.753
492.49	21.826
492.83	21.878
493.17	21.944
493.51	21.966
493.86	22.036
494.20	22.084
494.54	22.153
494.88	22.195
495.23	22.225
495.57	22.287
495.91	22.366
496.25	22.396
496.60	22.462
496.94	22.547
497.28	22.633
497.62	22.701
497.97	22.793
498.31	22.878
498.65	22.966
498.99	23.066
499.33	23.167
499.68	23.229
500.02	23.340
500.36	23.431
500.70	23.499
501.04	23.569
501.39	23.647
501.73	23.695
502.07	23.784
502.41	23.868
502.75	23.929
503.09	23.975
503.44	24.042
503.78	24.108
504.12	24.161
504.46	24.216
504.80	24.293
505.14	24.341
505.49	24.403
505.83	24.441
506.17	24.477
506.51	24.544
506.85	24.597
507.19	24.680
507.53	24.722
507.87	24.790
508.22	24.864
508.56	24.933
508.90	25.027
509.24	25.121
509.58	25.196
509.92	25.276
510.26	25.351
510.60	25.430
510.94	25.485
511.28	25.578
511.63	25.672
511.97	25.748
512.31	25.822
512.65	25.869
512.99	25.926
513.33	25.984
513.67	26.020
514.01	26.076
514.35	26.142
514.69	26.178
515.03	26.216
515.37	26.204
515.71	26.228
516.05	26.259
516.39	26.280
516.73	26.302
517.07	26.355
517.41	26.393
517.75	26.444
518.09	26.480
518.43	26.567
518.77	26.621
519.11	26.692
519.45	26.742
519.79	26.798
520.13	26.869
520.47	26.934
520.81	26.963
521.15	27.022
521.49	27.020
521.83	27.034
522.17	27.032
522.51	27.002
522.85	27.030
523.19	27.049
523.53	27.098
523.87	27.189
524.21	27.272
524.55	27.380
524.89	27.466
525.23	27.584
525.57	27.703
525.91	27.784
526.25	27.890
526.58	27.975
526.92	28.069
527.26	28.136
527.60	28.149
527.94	28.170
528.28	28.169
528.62	28.161
528.96	28.135
529.30	28.097
529.64	28.067
529.97	28.045
530.31	27.999
530.65	27.948
530.99	27.910
531.33	27.929
531.67	27.929
532.01	27.935
532.35	27.972
532.68	27.989
533.02	28.000
533.36	28.001
533.70	27.997
534.04	28.006
534.38	28.037
534.71	28.049
535.05	28.041
535.39	28.036
535.73	28.018
536.07	27.981
536.41	27.995
536.74	28.020
537.08	28.047
537.42	28.058
537.76	28.103
538.10	28.124
538.43	28.148
538.77	28.174
539.11	28.227
539.45	28.262
539.79	28.289
540.12	28.307
540.46	28.322
540.80	28.331
541.14	28.357
541.47	28.361
541.81	28.360
542.15	28.360
542.49	28.383
542.82	28.362
543.16	28.374
543.50	28.409
543.84	28.406
544.17	28.402
544.51	28.459
544.85	28.482
545.18	28.509
545.52	28.543
545.86	28.594
546.20	28.627
546.53	28.690
546.87	28.751
547.21	28.801
547.54	28.861
547.88	28.932
548.22	28.962
548.55	28.974
548.89	28.981
549.23	29.020
549.56	29.031
549.90	28.989
550.24	28.954
550.57	28.933
550.91	28.933
551.25	28.939
551.58	28.941
551.92	28.955
552.26	29.013
552.59	29.060
552.93	29.083
553.27	29.121
553.60	29.177
553.94	29.230
554.27	29.279
554.61	29.302
554.95	29.326
555.28	29.314
555.62	29.287
555.95	29.268
556.29	29.241
556.63	29.210
556.96	29.212
557.30	29.198
557.63	29.151
557.97	29.136
558.31	29.114
558.64	29.116
558.98	29.150
559.31	29.185
559.65	29.151
559.98	29.158
560.32	29.149
560.65	29.106
560.99	29.071
561.33	29.046
561.66	29.011
562.00	28.980
562.33	28.924
562.67	28.884
563.00	28.808
563.34	28.821
563.67	28.781
564.01	28.763
564.34	28.732
564.68	28.727
565.01	28.744
565.35	28.747
565.68	28.751
566.02	28.744
566.35	28.746
566.69	28.749
567.02	28.710
567.36	28.699
567.69	28.659
568.03	28.640
568.36	28.607
568.69	28.604
569.03	28.586
569.36	28.541
569.70	28.503
570.03	28.475
570.37	28.455
570.70	28.449
571.04	28.422
571.37	28.416
571.70	28.439
572.04	28.415
572.37	28.375
572.71	28.343
573.04	28.316
573.37	28.323
573.71	28.313
574.04	28.313
574.38	28.342
574.71	28.365
575.04	28.417
575.38	28.422
575.71	28.473
576.05	28.505
576.38	28.555
576.71	28.600
577.05	28.648
577.38	28.685
577.71	28.732
578.05	28.700
578.38	28.686
578.71	28.648
579.05	28.613
579.38	28.558
579.71	28.557
580.05	28.519
580.38	28.508
580.71	28.452
581.05	28.422
581.38	28.388
581.71	28.365
582.05	28.369
582.38	28.298
582.71	28.281
583.04	28.277
583.38	28.191
583.71	28.142
584.04	28.104
584.38	28.076
584.71	27.989
585.04	27.912
585.37	27.877
585.71	27.821
586.04	27.811
586.37	27.754
586.70	27.695
587.04	27.710
587.37	27.685
587.70	27.649
588.03	27.631
588.37	27.609
588.70	27.621
589.03	27.586
589.36	27.550
589.69	27.536
590.03	27.503
590.36	27.522
590.69	27.425
591.02	27.402
591.35	27.357
591.69	27.283
592.02	27.217
592.35	27.105
592.68	27.005
593.01	26.920
593.35	26.822
593.68	26.731
594.01	26.654
594.34	26.607
594.67	26.486
595.00	26.417
595.34	26.378
595.67	26.344
596.00	26.322
596.33	26.326
596.66	26.342
596.99	26.345
597.32	26.371
597.65	26.325
597.99	26.300
598.32	26.299
598.65	26.233
598.98	26.186
599.31	26.128
599.64	26.065
599.97	26.002
600.30	25.857
600.63	25.783
600.96	25.719
601.30	25.643
601.63	25.559
601.96	25.512
602.29	25.497
602.62	25.460
602.95	25.414
603.28	25.395
603.61	25.335
603.94	25.317
604.27	25.278
604.60	25.217
604.93	25.214
605.26	25.214
605.59	25.188
605.92	25.150
606.25	25.116
606.58	25.100
606.91	25.057
607.24	25.012
607.57	24.976
607.90	24.956
608.23	24.919
608.56	24.865
608.89	24.818
609.22	24.790
609.55	24.786
609.88	24.788
610.21	24.764
610.54	24.693
610.87	24.696
611.20	24.689
611.53	24.654
611.86	24.661
612.19	24.695
612.52	24.668
612.85	24.635
613.18	24.538
613.51	24.426
613.84	24.362
614.17	24.359
614.49	24.314
614.82	24.323
615.15	24.299
615.48	24.284
615.81	24.217
616.14	24.169
616.47	24.146
616.80	24.193
617.13	24.187
617.46	24.152
617.78	24.089
618.11	24.070
618.44	23.966
618.77	23.905
619.10	23.806
619.43	23.741
619.76	23.703
620.09	23.620
620.41	23.535
620.74	23.496
621.07	23.459
621.40	23.503
621.73	23.453
622.06	23.448
622.38	23.407
622.71	23.364
623.04	23.295
623.37	23.269
623.70	23.262
624.02	23.224
624.35	23.188
624.68	23.176
625.01	23.092
625.34	23.039
625.66	23.026
625.99	22.973
626.32	22.959
626.65	23.004
626.98	22.973
627.30	22.950
627.63	22.905
627.96	22.844
628.29	22.818
628.61	22.754
628.94	22.744
629.27	22.669
629.60	22.639
629.92	22.650
630.25	22.571
630.58	22.513
630.91	22.479
631.23	22.417
631.56	22.406
631.89	22.309
632.21	22.276
632.54	22.222
632.87	22.140
633.19	22.121
633.52	22.032
633.85	21.974
634.18	21.949
634.50	21.859
634.83	21.882
635.16	21.805
635.48	21.761
635.81	21.742
636.14	21.722
636.46	21.742
636.79	21.678
637.11	21.645
637.44	21.600
637.77	21.539
638.09	21.510
638.42	21.422
638.75	21.377
639.07	21.406
639.40	21.343
639.73	21.278
640.05	21.204
640.38	21.152
640.70	21.076
641.03	21.031
641.36	20.992
641.68	20.924
642.01	20.958
642.33	20.983
642.66	20.910
