OOIBase32 Version 2.0.0.6 Data File
++++++++++++++++++++++++++++++++++++
Date: 01-23-2012, 22:17:33
User: Valued Ocean Optics Customer
Spectrometer Serial Number: USB2E2917
Spectrometer Channel: Master
Integration Time (msec): 5
Spectra Averaged: 10
Boxcar Smoothing: 5
Correct for Electrical Dark: Enabled
Time Normalized: Disabled
Dual-beam Reference: Disabled
Reference Channel: Master
Temperature: Not acquired
Spectrometer Type: S2000
ADC Type: USB2000
Number of Pixels in File: 2048
Graph Title: 
>>>>>Begin Spectral Data<<<<<
180.30	0.000
180.67	0.000
181.03	249.230
181.40	-306.573
181.77	5102.133
182.14	52.567
182.51	102.532
182.88	159.428
183.25	421.445
183.62	187.004
183.99	70.279
184.36	-272.442
184.73	172.643
185.10	-25.177
185.46	67.398
185.83	88.771
186.20	56.599
186.57	663.649
186.94	-76.964
187.31	189.567
187.68	187.515
188.05	-54.052
188.42	-24.717
188.78	-13.931
189.15	-18.630
189.52	1.611
189.89	18.404
190.26	8.524
190.63	14.820
191.00	6.393
191.37	13.575
191.73	30.476
192.10	37.861
192.47	31.579
192.84	30.801
193.21	26.315
193.58	18.688
193.94	11.165
194.31	5.158
194.68	7.022
195.05	0.942
195.42	-20.074
195.79	-31.792
196.15	-38.447
196.52	-27.522
196.89	-44.241
197.26	-41.547
197.63	-55.056
198.00	-52.317
198.36	-41.074
198.73	-35.391
199.10	-25.214
199.47	-12.351
199.84	-11.432
200.20	-1.287
200.57	-18.798
200.94	-11.356
201.31	-6.960
201.68	17.333
202.04	20.190
202.41	28.061
202.78	26.315
203.15	23.412
203.51	7.728
203.88	4.664
204.25	-8.575
204.62	-3.921
204.98	9.077
205.35	16.015
205.72	13.552
206.09	4.776
206.46	3.787
206.82	6.073
207.19	4.672
207.56	8.816
207.92	2.106
208.29	2.016
208.66	3.566
209.03	-5.541
209.39	-15.689
209.76	-32.833
210.13	-37.873
210.50	-40.076
210.86	-39.378
211.23	-24.857
211.60	-15.888
211.96	-8.648
212.33	-9.638
212.70	-4.927
213.07	-7.277
213.43	-2.867
213.80	6.860
214.17	9.695
214.53	12.346
214.90	10.484
215.27	8.664
215.63	5.946
216.00	4.003
216.37	6.260
216.74	-11.294
217.10	-8.810
217.47	-11.247
217.84	-10.715
218.20	-3.105
218.57	2.486
218.94	10.550
219.30	9.918
219.67	10.635
220.04	12.423
220.40	15.732
220.77	21.699
221.13	12.507
221.50	7.238
221.87	5.660
222.23	0.874
222.60	-8.145
222.97	-15.583
223.33	-19.908
223.70	-19.777
224.07	-12.529
224.43	-10.505
224.80	-5.020
225.16	-2.782
225.53	-0.016
225.90	-2.724
226.26	-2.476
226.63	-2.505
226.99	-1.624
227.36	-1.662
227.73	-2.672
228.09	-5.453
228.46	-5.539
228.82	-5.537
229.19	-5.746
229.56	-7.992
229.92	-6.339
230.29	-6.868
230.65	-7.110
231.02	-6.409
231.38	-4.175
231.75	-4.008
232.12	-1.613
232.48	-0.443
232.85	-1.856
233.21	0.196
233.58	2.374
233.94	2.822
234.31	1.743
234.68	1.432
235.04	1.732
235.41	-0.314
235.77	1.869
236.14	1.688
236.50	-0.096
236.87	-0.494
237.23	-1.702
237.60	-1.575
237.96	-2.443
238.33	-0.121
238.69	0.399
239.06	-0.195
239.42	0.901
239.79	0.474
240.15	0.183
240.52	0.312
240.88	0.972
241.25	0.950
241.61	0.723
241.98	1.419
242.34	0.757
242.71	1.565
243.07	2.357
243.44	2.265
243.80	2.249
244.17	2.421
244.53	2.632
244.90	2.371
245.26	2.641
245.63	2.682
245.99	2.589
246.36	2.837
246.72	2.189
247.09	1.765
247.45	1.474
247.81	1.127
248.18	0.684
248.54	0.446
248.91	0.676
249.27	0.795
249.64	0.881
250.00	0.914
250.36	0.975
250.73	1.350
251.09	1.457
251.46	1.685
251.82	2.587
252.19	3.265
252.55	3.862
252.91	3.795
253.28	3.037
253.64	3.516
254.01	3.789
254.37	3.626
254.73	3.821
255.10	3.828
255.46	3.621
255.83	3.416
256.19	3.297
256.55	3.001
256.92	2.858
257.28	3.186
257.65	3.346
258.01	3.489
258.37	3.339
258.74	3.315
259.10	3.216
259.46	3.340
259.83	3.370
260.19	3.300
260.55	3.398
260.92	3.400
261.28	2.931
261.64	2.365
262.01	1.790
262.37	1.487
262.73	1.431
263.10	1.734
263.46	1.828
263.82	1.468
264.19	1.249
264.55	0.983
264.91	1.112
265.28	1.588
265.64	1.554
266.00	1.791
266.37	1.802
266.73	1.767
267.09	1.782
267.46	1.865
267.82	2.094
268.18	2.312
268.54	2.366
268.91	2.499
269.27	2.464
269.63	2.543
270.00	2.425
270.36	2.593
270.72	2.530
271.08	2.284
271.45	2.228
271.81	2.469
272.17	2.579
272.53	2.500
272.90	2.249
273.26	2.048
273.62	1.956
273.98	2.059
274.35	2.070
274.71	2.344
275.07	2.522
275.43	2.602
275.80	2.410
276.16	2.511
276.52	2.535
276.88	2.599
277.25	2.665
277.61	2.925
277.97	2.757
278.33	2.618
278.69	2.132
279.06	2.347
279.42	1.905
279.78	1.931
280.14	1.890
280.50	1.962
280.87	2.148
281.23	2.440
281.59	2.292
281.95	2.455
282.31	2.635
282.68	3.041
283.04	3.066
283.40	3.262
283.76	3.008
284.12	2.925
284.48	3.012
284.85	2.924
285.21	2.815
285.57	2.910
285.93	2.935
286.29	2.860
286.65	2.661
287.02	2.427
287.38	2.342
287.74	2.526
288.10	2.390
288.46	2.296
288.82	2.163
289.18	1.995
289.54	1.884
289.91	1.875
290.27	1.905
290.63	1.920
290.99	1.879
291.35	1.989
291.71	2.140
292.07	2.147
292.43	2.198
292.79	2.562
293.16	2.571
293.52	2.542
293.88	2.487
294.24	2.551
294.60	2.493
294.96	2.589
295.32	2.599
295.68	2.383
296.04	2.512
296.40	2.507
296.76	2.446
297.12	2.519
297.49	2.567
297.85	2.639
298.21	2.740
298.57	2.807
298.93	2.644
299.29	2.686
299.65	2.651
300.01	2.621
300.37	2.484
300.73	2.587
301.09	2.687
301.45	2.685
301.81	2.612
302.17	2.443
302.53	2.464
302.89	2.566
303.25	2.381
303.61	2.560
303.97	2.570
304.33	2.595
304.69	2.386
305.05	2.287
305.41	2.184
305.77	2.267
306.13	2.289
306.49	2.356
306.85	2.477
307.21	2.639
307.57	2.582
307.93	2.590
308.29	2.646
308.65	2.570
309.01	2.566
309.37	2.731
309.73	2.676
310.09	2.606
310.45	2.567
310.81	2.576
311.17	2.420
311.53	2.398
311.89	2.470
312.25	2.426
312.61	2.509
312.96	2.617
313.32	2.626
313.68	2.555
314.04	2.650
314.40	2.688
314.76	2.667
315.12	2.895
315.48	3.021
315.84	2.884
316.20	2.946
316.56	2.964
316.92	2.841
317.27	2.645
317.63	2.650
317.99	2.724
318.35	2.569
318.71	2.447
319.07	2.310
319.43	2.245
319.79	2.272
320.15	2.216
320.50	2.106
320.86	2.160
321.22	2.182
321.58	2.256
321.94	2.062
322.30	2.164
322.66	2.191
323.01	2.252
323.37	2.230
323.73	2.254
324.09	2.388
324.45	2.490
324.81	2.488
325.17	2.532
325.52	2.497
325.88	2.543
326.24	2.610
326.60	2.765
326.96	2.829
327.31	2.813
327.67	2.787
328.03	2.776
328.39	2.699
328.75	2.688
329.11	2.747
329.46	2.743
329.82	2.744
330.18	2.651
330.54	2.529
330.90	2.412
331.25	2.321
331.61	2.362
331.97	2.314
332.33	2.500
332.68	2.433
333.04	2.427
333.40	2.481
333.76	2.528
334.11	2.476
334.47	2.468
334.83	2.434
335.19	2.555
335.54	2.542
335.90	2.497
336.26	2.408
336.62	2.540
336.97	2.434
337.33	2.312
337.69	2.317
338.05	2.344
338.40	2.319
338.76	2.382
339.12	2.337
339.48	2.341
339.83	2.393
340.19	2.308
340.55	2.212
340.90	2.322
341.26	2.357
341.62	2.346
341.97	2.473
342.33	2.596
342.69	2.582
343.04	2.639
343.40	2.719
343.76	2.745
344.12	2.847
344.47	2.916
344.83	2.843
345.19	2.828
345.54	2.888
345.90	2.884
346.26	2.825
346.61	2.924
346.97	2.906
347.32	2.824
347.68	2.785
348.04	2.736
348.39	2.703
348.75	2.874
349.11	2.885
349.46	2.867
349.82	2.789
350.18	2.761
350.53	2.642
350.89	2.597
351.24	2.594
351.60	2.578
351.96	2.620
352.31	2.729
352.67	2.650
353.02	2.730
353.38	2.652
353.74	2.647
354.09	2.678
354.45	2.780
354.80	2.839
355.16	2.893
355.52	2.950
355.87	2.922
356.23	2.835
356.58	2.869
356.94	2.836
357.29	2.883
357.65	2.935
358.00	2.966
358.36	2.948
358.72	3.025
359.07	3.020
359.43	3.039
359.78	3.101
360.14	3.108
360.49	3.093
360.85	3.164
361.20	3.293
361.56	3.311
361.91	3.273
362.27	3.273
362.62	3.185
362.98	3.161
363.33	3.139
363.69	3.069
364.04	3.068
364.40	3.071
364.75	3.002
365.11	2.933
365.46	2.928
365.82	2.948
366.17	2.956
366.53	3.038
366.88	3.107
367.24	3.177
367.59	3.270
367.95	3.334
368.30	3.334
368.66	3.398
369.01	3.429
369.37	3.486
369.72	3.507
370.08	3.560
370.43	3.551
370.78	3.521
371.14	3.489
371.49	3.530
371.85	3.502
372.20	3.579
372.56	3.622
372.91	3.575
373.26	3.552
373.62	3.555
373.97	3.577
374.33	3.610
374.68	3.652
375.03	3.705
375.39	3.645
375.74	3.671
376.10	3.645
376.45	3.639
376.80	3.675
377.16	3.687
377.51	3.751
377.87	3.712
378.22	3.696
378.57	3.712
378.93	3.716
379.28	3.778
379.63	3.842
379.99	3.881
380.34	3.897
380.70	3.946
381.05	3.994
381.40	3.997
381.76	4.044
382.11	4.072
382.46	4.096
382.82	4.097
383.17	4.092
383.52	4.092
383.88	4.078
384.23	4.130
384.58	4.137
384.94	4.143
385.29	4.143
385.64	4.194
385.99	4.223
386.35	4.305
386.70	4.373
387.05	4.388
387.41	4.424
387.76	4.481
388.11	4.452
388.47	4.483
388.82	4.502
389.17	4.540
389.52	4.531
389.88	4.590
390.23	4.586
390.58	4.622
390.93	4.699
391.29	4.719
391.64	4.758
391.99	4.822
392.34	4.880
392.70	4.916
393.05	4.960
393.40	5.005
393.75	4.997
394.11	5.013
394.46	5.032
394.81	5.012
395.16	5.028
395.52	5.053
395.87	5.036
396.22	5.013
396.57	5.028
396.92	5.040
397.28	5.088
397.63	5.113
397.98	5.169
398.33	5.173
398.68	5.210
399.04	5.288
399.39	5.320
399.74	5.371
400.09	5.409
400.44	5.469
400.80	5.470
401.15	5.455
401.50	5.474
401.85	5.488
402.20	5.531
402.55	5.567
402.90	5.552
403.26	5.589
403.61	5.622
403.96	5.671
404.31	5.677
404.66	5.747
405.01	5.817
405.36	5.869
405.72	5.898
406.07	5.916
406.42	5.977
406.77	6.001
407.12	6.036
407.47	6.103
407.82	6.121
408.17	6.147
408.53	6.159
408.88	6.191
409.23	6.224
409.58	6.218
409.93	6.270
410.28	6.287
410.63	6.356
410.98	6.384
411.33	6.355
411.68	6.375
412.03	6.394
412.38	6.456
412.73	6.488
413.09	6.513
413.44	6.588
413.79	6.608
414.14	6.625
414.49	6.625
414.84	6.657
415.19	6.743
415.54	6.775
415.89	6.820
416.24	6.822
416.59	6.851
416.94	6.888
417.29	6.909
417.64	6.930
417.99	6.983
418.34	7.019
418.69	7.033
419.04	7.033
419.39	7.068
419.74	7.091
420.09	7.123
420.44	7.132
420.79	7.143
421.14	7.139
421.49	7.160
421.84	7.175
422.19	7.193
422.54	7.238
422.89	7.262
423.24	7.275
423.59	7.301
423.94	7.321
424.29	7.335
424.64	7.357
424.99	7.421
425.34	7.470
425.68	7.504
426.03	7.554
426.38	7.551
426.73	7.593
427.08	7.648
427.43	7.691
427.78	7.713
428.13	7.764
428.48	7.803
428.83	7.818
429.18	7.802
429.53	7.801
429.87	7.826
430.22	7.834
430.57	7.844
430.92	7.830
431.27	7.820
431.62	7.836
431.97	7.833
432.32	7.854
432.67	7.854
433.01	7.881
433.36	7.918
433.71	7.924
434.06	7.960
434.41	7.993
434.76	8.046
435.11	8.080
435.45	8.097
435.80	8.130
436.15	8.158
436.50	8.182
436.85	8.212
437.20	8.211
437.54	8.235
437.89	8.233
438.24	8.239
438.59	8.239
438.94	8.269
439.29	8.283
439.63	8.292
439.98	8.317
440.33	8.345
440.68	8.358
441.03	8.372
441.37	8.375
441.72	8.413
442.07	8.436
442.42	8.451
442.76	8.453
443.11	8.472
443.46	8.479
443.81	8.467
444.16	8.479
444.50	8.488
444.85	8.533
445.20	8.558
445.55	8.556
445.89	8.562
446.24	8.566
446.59	8.592
446.94	8.622
447.28	8.656
447.63	8.708
447.98	8.725
448.32	8.761
448.67	8.760
449.02	8.772
449.37	8.809
449.71	8.833
450.06	8.870
450.41	8.881
450.75	8.899
451.10	8.903
451.45	8.906
451.79	8.929
452.14	8.933
452.49	8.940
452.84	8.973
453.18	8.983
453.53	9.009
453.88	9.020
454.22	9.032
454.57	9.045
454.92	9.128
455.26	9.148
455.61	9.157
455.95	9.165
456.30	9.175
456.65	9.177
456.99	9.189
457.34	9.211
457.69	9.243
458.03	9.259
458.38	9.267
458.73	9.250
459.07	9.275
459.42	9.308
459.76	9.328
460.11	9.349
460.46	9.372
460.80	9.427
461.15	9.445
461.49	9.459
461.84	9.487
462.19	9.525
462.53	9.553
462.88	9.550
463.22	9.566
463.57	9.606
463.91	9.647
464.26	9.691
464.61	9.707
464.95	9.724
465.30	9.746
465.64	9.780
465.99	9.805
466.33	9.822
466.68	9.860
467.02	9.876
467.37	9.895
467.71	9.916
468.06	9.925
468.41	9.933
468.75	9.949
469.10	9.962
469.44	9.969
469.79	9.977
470.13	10.010
470.48	10.000
470.82	10.015
471.17	10.033
471.51	10.028
471.86	10.018
472.20	10.043
472.55	10.072
472.89	10.100
473.23	10.109
473.58	10.123
473.92	10.122
474.27	10.153
474.61	10.164
474.96	10.164
475.30	10.182
475.65	10.193
475.99	10.197
476.34	10.223
476.68	10.238
477.02	10.266
477.37	10.291
477.71	10.306
478.06	10.334
478.40	10.393
478.75	10.482
479.09	10.578
479.43	10.690
479.78	10.800
480.12	10.937
480.47	11.082
480.81	11.240
481.15	11.413
481.50	11.594
481.84	11.810
482.19	12.026
482.53	12.201
482.87	12.301
483.22	12.292
483.56	12.189
483.90	12.015
484.25	11.800
484.59	11.602
484.94	11.446
485.28	11.288
485.62	11.084
485.97	10.860
486.31	10.671
486.65	10.559
487.00	10.554
487.34	10.634
487.68	10.751
488.03	10.915
488.37	11.044
488.71	11.100
489.06	11.127
489.40	11.147
489.74	11.166
490.09	11.174
490.43	11.169
490.77	11.180
491.11	11.182
491.46	11.198
491.80	11.205
492.14	11.195
492.49	11.195
492.83	11.188
493.17	11.191
493.51	11.200
493.86	11.219
494.20	11.241
494.54	11.249
494.88	11.269
495.23	11.293
495.57	11.311
495.91	11.349
496.25	11.353
496.60	11.389
496.94	11.399
497.28	11.426
497.62	11.443
497.97	11.473
498.31	11.502
498.65	11.512
498.99	11.533
499.33	11.560
499.68	11.579
500.02	11.615
500.36	11.629
500.70	11.649
501.04	11.671
501.39	11.666
501.73	11.692
502.07	11.717
502.41	11.760
502.75	11.772
503.09	11.784
503.44	11.795
503.78	11.810
504.12	11.851
504.46	11.891
504.80	11.900
505.14	11.955
505.49	11.974
505.83	11.995
506.17	12.021
506.51	12.033
506.85	12.043
507.19	12.072
507.53	12.099
507.87	12.121
508.22	12.147
508.56	12.171
508.90	12.185
509.24	12.224
509.58	12.238
509.92	12.262
510.26	12.302
510.60	12.347
510.94	12.369
511.28	12.392
511.63	12.427
511.97	12.442
512.31	12.490
512.65	12.521
512.99	12.545
513.33	12.593
513.67	12.625
514.01	12.660
514.35	12.699
514.69	12.734
515.03	12.775
515.37	12.794
515.71	12.820
516.05	12.823
516.39	12.833
516.73	12.847
517.07	12.875
517.41	12.901
517.75	12.919
518.09	12.934
518.43	12.960
518.77	12.974
519.11	13.000
519.45	13.046
519.79	13.075
520.13	13.133
520.47	13.168
520.81	13.207
521.15	13.225
521.49	13.255
521.83	13.271
522.17	13.308
522.51	13.334
522.85	13.362
523.19	13.413
523.53	13.503
523.87	13.587
524.21	13.689
524.55	13.752
524.89	13.841
525.23	13.932
525.57	14.005
525.91	14.062
526.25	14.136
526.58	14.196
526.92	14.243
527.26	14.267
527.60	14.270
527.94	14.251
528.28	14.260
528.62	14.244
528.96	14.214
529.30	14.197
529.64	14.180
529.97	14.150
530.31	14.125
530.65	14.104
530.99	14.087
531.33	14.094
531.67	14.125
532.01	14.134
532.35	14.151
532.68	14.160
533.02	14.168
533.36	14.179
533.70	14.187
534.04	14.198
534.38	14.205
534.71	14.233
535.05	14.258
535.39	14.273
535.73	14.297
536.07	14.318
536.41	14.366
536.74	14.417
537.08	14.462
537.42	14.527
537.76	14.581
538.10	14.618
538.43	14.672
538.77	14.701
539.11	14.736
539.45	14.761
539.79	14.789
540.12	14.804
540.46	14.805
540.80	14.809
541.14	14.797
541.47	14.786
541.81	14.794
542.15	14.779
542.49	14.777
542.82	14.759
543.16	14.754
543.50	14.760
543.84	14.775
544.17	14.818
544.51	14.840
544.85	14.871
545.18	14.908
545.52	14.932
545.86	14.958
546.20	14.977
546.53	15.014
546.87	15.042
547.21	15.072
547.54	15.085
547.88	15.104
548.22	15.125
548.55	15.149
548.89	15.181
549.23	15.208
549.56	15.229
549.90	15.277
550.24	15.321
550.57	15.340
550.91	15.350
551.25	15.378
551.58	15.399
551.92	15.445
552.26	15.468
552.59	15.484
552.93	15.531
553.27	15.567
553.60	15.579
553.94	15.610
554.27	15.638
554.61	15.695
554.95	15.761
555.28	15.813
555.62	15.846
555.95	15.878
556.29	15.928
556.63	15.938
556.96	15.964
557.30	16.000
557.63	16.004
557.97	16.055
558.31	16.060
558.64	16.083
558.98	16.093
559.31	16.103
559.65	16.146
559.98	16.154
560.32	16.177
560.65	16.189
560.99	16.209
561.33	16.244
561.66	16.267
562.00	16.312
562.33	16.328
562.67	16.340
563.00	16.396
563.34	16.415
563.67	16.430
564.01	16.441
564.34	16.435
564.68	16.459
565.01	16.459
565.35	16.457
565.68	16.477
566.02	16.492
566.35	16.536
566.69	16.558
567.02	16.561
567.36	16.592
567.69	16.622
568.03	16.662
568.36	16.687
568.69	16.726
569.03	16.765
569.36	16.780
569.70	16.789
570.03	16.802
570.37	16.802
570.70	16.843
571.04	16.858
571.37	16.867
571.70	16.910
572.04	16.922
572.37	16.951
572.71	16.979
573.04	16.987
573.37	17.049
573.71	17.061
574.04	17.095
574.38	17.123
574.71	17.155
575.04	17.229
575.38	17.254
575.71	17.301
576.05	17.348
576.38	17.396
576.71	17.449
577.05	17.464
577.38	17.540
577.71	17.575
578.05	17.582
578.38	17.626
578.71	17.602
579.05	17.631
579.38	17.686
579.71	17.676
580.05	17.680
580.38	17.712
580.71	17.719
581.05	17.736
581.38	17.749
581.71	17.788
582.05	17.794
582.38	17.849
582.71	17.892
583.04	17.898
583.38	17.961
583.71	17.989
584.04	17.995
584.38	18.028
584.71	18.024
585.04	18.054
585.37	18.076
585.71	18.112
586.04	18.138
586.37	18.139
586.70	18.159
587.04	18.148
587.37	18.160
587.70	18.159
588.03	18.176
588.37	18.184
588.70	18.181
589.03	18.191
589.36	18.190
589.69	18.171
590.03	18.159
590.36	18.147
590.69	18.176
591.02	18.174
591.35	18.206
591.69	18.204
592.02	18.240
592.35	18.223
592.68	18.248
593.01	18.271
593.35	18.300
593.68	18.333
594.01	18.307
594.34	18.293
594.67	18.303
595.00	18.305
595.34	18.306
595.67	18.294
596.00	18.341
596.33	18.325
596.66	18.339
596.99	18.361
597.32	18.377
597.65	18.463
597.99	18.527
598.32	18.580
598.65	18.606
598.98	18.657
599.31	18.700
599.64	18.724
599.97	18.751
600.30	18.726
600.63	18.729
600.96	18.714
601.30	18.702
601.63	18.683
601.96	18.663
602.29	18.679
602.62	18.662
602.95	18.666
603.28	18.639
603.61	18.650
603.94	18.692
604.27	18.697
604.60	18.732
604.93	18.765
605.26	18.781
605.59	18.806
605.92	18.820
606.25	18.850
606.58	18.870
606.91	18.933
607.24	18.981
607.57	18.990
607.90	19.019
608.23	19.014
608.56	19.004
608.89	19.029
609.22	19.045
609.55	19.075
609.88	19.090
610.21	19.110
610.54	19.119
610.87	19.124
611.20	19.166
611.53	19.188
611.86	19.240
612.19	19.310
612.52	19.330
612.85	19.385
613.18	19.401
613.51	19.423
613.84	19.439
614.17	19.490
614.49	19.519
614.82	19.521
615.15	19.522
615.48	19.566
615.81	19.558
616.14	19.624
616.47	19.655
616.80	19.707
617.13	19.754
617.46	19.794
617.78	19.778
618.11	19.777
618.44	19.810
618.77	19.841
619.10	19.847
619.43	19.878
619.76	19.901
620.09	19.911
620.41	19.912
620.74	19.932
621.07	19.935
621.40	19.971
621.73	20.014
622.06	20.035
622.38	20.079
622.71	20.082
623.04	20.122
623.37	20.102
623.70	20.088
624.02	20.102
624.35	20.136
624.68	20.120
625.01	20.146
625.34	20.146
625.66	20.155
625.99	20.171
626.32	20.211
626.65	20.229
626.98	20.258
627.30	20.305
627.63	20.342
627.96	20.376
628.29	20.445
628.61	20.478
628.94	20.521
629.27	20.548
629.60	20.611
629.92	20.600
630.25	20.624
630.58	20.654
630.91	20.692
631.23	20.716
631.56	20.722
631.89	20.769
632.21	20.789
632.54	20.826
632.87	20.875
633.19	20.866
633.52	20.920
633.85	20.943
634.18	20.938
634.50	20.926
634.83	20.973
635.16	21.011
635.48	21.016
635.81	20.997
636.14	21.029
636.46	21.012
636.79	21.065
637.11	21.130
637.44	21.176
637.77	21.171
638.09	21.194
638.42	21.144
638.75	21.169
639.07	21.184
639.40	21.277
639.73	21.271
640.05	21.364
640.38	21.351
640.70	21.351
641.03	21.333
641.36	21.414
641.68	21.422
642.01	21.468
642.33	21.477
642.66	21.502
642.98	21.448
643.31	21.428
643.64	21.382
643.96	21.375
644.29	21.323
644.61	21.341
644.94	21.327
645.26	21.359
645.59	21.380
645.91	21.400
646.24	21.422
646.56	21.471
646.89	21.533
647.22	21.561
