OOIBase32 Version 2.0.0.6 Data File
++++++++++++++++++++++++++++++++++++
Date: 01-23-2012, 22:13:56
User: Valued Ocean Optics Customer
Spectrometer Serial Number: USB2E2917
Spectrometer Channel: Master
Integration Time (msec): 5
Spectra Averaged: 10
Boxcar Smoothing: 5
Correct for Electrical Dark: Enabled
Time Normalized: Disabled
Dual-beam Reference: Disabled
Reference Channel: Master
Temperature: Not acquired
Spectrometer Type: S2000
ADC Type: USB2000
Number of Pixels in File: 2048
Graph Title: 
>>>>>Begin Spectral Data<<<<<
180.30	0.000
180.67	0.000
181.03	289.600
181.40	-116.027
181.77	1799.333
182.14	65.617
182.51	72.949
182.88	-6226.324
183.25	-244.633
183.62	-159.238
183.99	104.475
184.36	-185.987
184.73	338.807
185.10	-56.815
185.46	114.830
185.83	61.780
186.20	45.388
186.57	141.386
186.94	134.384
187.31	315.766
187.68	-164.959
188.05	-42.796
188.42	-18.544
188.78	-17.021
189.15	-5.183
189.52	5.298
189.89	6.250
190.26	-9.316
190.63	3.071
191.00	-12.092
191.37	-3.667
191.73	12.096
192.10	21.025
192.47	17.217
192.84	13.375
193.21	7.802
193.58	15.457
193.94	12.781
194.31	3.866
194.68	10.000
195.05	8.358
195.42	-0.487
195.79	-8.980
196.15	-10.934
196.52	-6.096
196.89	-15.460
197.26	-8.592
197.63	-7.818
198.00	-11.060
198.36	4.471
198.73	-3.354
199.10	3.542
199.47	5.917
199.84	7.500
200.20	11.848
200.57	-1.466
200.94	-2.164
201.31	-0.613
201.68	6.532
202.04	9.281
202.41	5.702
202.78	-4.725
203.15	-8.670
203.51	-25.053
203.88	-15.952
204.25	-23.568
204.62	-4.371
204.98	6.013
205.35	6.124
205.72	13.789
206.09	14.089
206.46	15.661
206.82	22.615
207.19	12.858
207.56	20.488
207.92	8.175
208.29	1.508
208.66	-6.427
209.03	3.457
209.39	-1.988
209.76	-22.889
210.13	-39.864
210.50	-43.625
210.86	-38.440
211.23	-12.312
211.60	-16.276
211.96	-0.450
212.33	2.765
212.70	15.532
213.07	1.133
213.43	8.394
213.80	10.692
214.17	13.556
214.53	13.761
214.90	10.607
215.27	1.467
215.63	-5.482
216.00	-14.623
216.37	-3.123
216.74	-23.428
217.10	-21.716
217.47	-36.950
217.84	-32.935
218.20	-10.054
218.57	-5.624
218.94	-7.477
219.30	-8.905
219.67	-2.034
220.04	-0.988
220.40	-4.634
220.77	-3.577
221.13	-7.440
221.50	-1.413
221.87	-0.382
222.23	-14.874
222.60	-12.068
222.97	-18.431
223.33	-14.175
223.70	-16.453
224.07	-13.656
224.43	-10.654
224.80	-6.346
225.16	-1.513
225.53	1.118
225.90	-1.658
226.26	-2.322
226.63	-4.053
226.99	-1.805
227.36	-1.427
227.73	-1.754
228.09	-4.417
228.46	-4.804
228.82	-3.601
229.19	-4.105
229.56	-6.616
229.92	-4.878
230.29	-1.545
230.65	-0.815
231.02	-0.094
231.38	-0.940
231.75	0.011
232.12	2.476
232.48	1.707
232.85	0.238
233.21	1.848
233.58	1.991
233.94	3.562
234.31	0.124
234.68	0.737
235.04	0.841
235.41	1.587
235.77	3.308
236.14	2.611
236.50	1.052
236.87	1.765
237.23	0.751
237.60	1.570
237.96	0.075
238.33	2.003
238.69	1.931
239.06	2.102
239.42	2.166
239.79	1.489
240.15	1.510
240.52	2.128
240.88	1.723
241.25	1.788
241.61	1.852
241.98	2.651
242.34	2.149
242.71	2.535
243.07	2.860
243.44	2.911
243.80	3.288
244.17	3.455
244.53	3.691
244.90	3.804
245.26	4.050
245.63	4.069
245.99	3.818
246.36	3.961
246.72	3.281
247.09	2.997
247.45	2.837
247.81	2.281
248.18	1.840
248.54	1.448
248.91	1.012
249.27	0.823
249.64	0.435
250.00	0.568
250.36	0.616
250.73	1.508
251.09	1.644
251.46	1.771
251.82	2.248
252.19	3.002
252.55	2.766
252.91	3.156
253.28	2.559
253.64	3.013
254.01	2.995
254.37	2.759
254.73	2.620
255.10	2.837
255.46	2.742
255.83	2.213
256.19	2.073
256.55	2.530
256.92	2.526
257.28	2.622
257.65	2.782
258.01	2.827
258.37	2.842
258.74	2.771
259.10	2.648
259.46	2.594
259.83	3.029
260.19	2.931
260.55	2.659
260.92	2.667
261.28	2.665
261.64	2.172
262.01	1.940
262.37	1.645
262.73	1.242
263.10	1.215
263.46	1.669
263.82	1.546
264.19	1.576
264.55	1.957
264.91	2.009
265.28	2.363
265.64	2.574
266.00	2.292
266.37	2.136
266.73	2.694
267.09	2.693
267.46	2.536
267.82	2.524
268.18	2.664
268.54	2.271
268.91	2.253
269.27	2.046
269.63	2.014
270.00	2.232
270.36	2.365
270.72	2.355
271.08	2.059
271.45	1.928
271.81	2.069
272.17	2.077
272.53	2.146
272.90	1.736
273.26	1.539
273.62	1.343
273.98	1.257
274.35	1.073
274.71	1.238
275.07	1.421
275.43	1.752
275.80	1.844
276.16	2.217
276.52	2.313
276.88	2.590
277.25	2.473
277.61	2.792
277.97	2.815
278.33	2.981
278.69	2.464
279.06	2.825
279.42	2.389
279.78	1.947
280.14	1.567
280.50	1.577
280.87	1.751
281.23	2.145
281.59	2.080
281.95	2.103
282.31	2.200
282.68	2.409
283.04	2.160
283.40	2.291
283.76	2.342
284.12	2.562
284.48	2.715
284.85	2.619
285.21	2.347
285.57	2.397
285.93	2.385
286.29	2.326
286.65	2.234
287.02	2.282
287.38	2.484
287.74	2.650
288.10	2.478
288.46	2.385
288.82	2.350
289.18	2.280
289.54	2.222
289.91	2.427
290.27	2.423
290.63	2.452
290.99	2.335
291.35	2.105
291.71	2.266
292.07	2.322
292.43	2.281
292.79	2.682
293.16	2.945
293.52	2.951
293.88	2.847
294.24	3.013
294.60	2.899
294.96	2.976
295.32	3.025
295.68	2.738
296.04	2.979
296.40	2.933
296.76	2.672
297.12	2.537
297.49	2.687
297.85	2.801
298.21	2.864
298.57	2.965
298.93	2.989
299.29	2.942
299.65	2.986
300.01	2.923
300.37	2.841
300.73	3.097
301.09	3.186
301.45	3.155
301.81	3.096
302.17	2.781
302.53	2.749
302.89	2.743
303.25	2.673
303.61	2.900
303.97	2.712
304.33	2.834
304.69	2.713
305.05	2.643
305.41	2.465
305.77	2.473
306.13	2.545
306.49	2.672
306.85	2.741
307.21	2.895
307.57	2.873
307.93	2.953
308.29	3.012
308.65	2.896
309.01	2.992
309.37	3.094
309.73	2.957
310.09	3.073
310.45	3.040
310.81	3.004
311.17	2.914
311.53	2.861
311.89	2.865
312.25	2.679
312.61	2.726
312.96	2.758
313.32	2.729
313.68	2.802
314.04	2.755
314.40	2.800
314.76	2.911
315.12	2.980
315.48	3.085
315.84	3.003
316.20	3.208
316.56	3.178
316.92	3.055
317.27	2.900
317.63	2.909
317.99	2.828
318.35	2.685
318.71	2.603
319.07	2.605
319.43	2.472
319.79	2.379
320.15	2.263
320.50	2.218
320.86	2.277
321.22	2.434
321.58	2.475
321.94	2.546
322.30	2.682
322.66	2.809
323.01	2.851
323.37	2.867
323.73	3.045
324.09	3.162
324.45	3.415
324.81	3.476
325.17	3.456
325.52	3.514
325.88	3.573
326.24	3.657
326.60	3.757
326.96	3.890
327.31	3.989
327.67	4.068
328.03	4.130
328.39	4.094
328.75	4.163
329.11	4.358
329.46	4.270
329.82	4.274
330.18	4.236
330.54	4.209
330.90	4.180
331.25	4.208
331.61	4.153
331.97	4.200
332.33	4.264
332.68	4.272
333.04	4.225
333.40	4.398
333.76	4.506
334.11	4.549
334.47	4.503
334.83	4.497
335.19	4.588
335.54	4.699
335.90	4.728
336.26	4.750
336.62	4.787
336.97	4.808
337.33	4.839
337.69	4.776
338.05	4.775
338.40	4.778
338.76	4.822
339.12	4.792
339.48	4.753
339.83	4.659
340.19	4.632
340.55	4.638
340.90	4.601
341.26	4.562
341.62	4.563
341.97	4.663
342.33	4.766
342.69	4.759
343.04	4.728
343.40	4.761
343.76	4.915
344.12	4.964
344.47	5.025
344.83	5.042
345.19	5.030
345.54	5.165
345.90	5.232
346.26	5.224
346.61	5.332
346.97	5.333
347.32	5.354
347.68	5.242
348.04	5.229
348.39	5.269
348.75	5.403
349.11	5.431
349.46	5.396
349.82	5.355
350.18	5.392
350.53	5.348
350.89	5.452
351.24	5.443
351.60	5.575
351.96	5.585
352.31	5.578
352.67	5.540
353.02	5.604
353.38	5.552
353.74	5.484
354.09	5.466
354.45	5.468
354.80	5.440
355.16	5.534
355.52	5.503
355.87	5.535
356.23	5.573
356.58	5.572
356.94	5.581
357.29	5.633
357.65	5.673
358.00	5.667
358.36	5.722
358.72	5.731
359.07	5.724
359.43	5.787
359.78	5.832
360.14	5.797
360.49	5.815
360.85	5.837
361.20	5.902
361.56	6.002
361.91	6.063
362.27	6.070
362.62	6.118
362.98	6.099
363.33	6.090
363.69	6.075
364.04	6.070
364.40	6.104
364.75	6.120
365.11	6.168
365.46	6.172
365.82	6.167
366.17	6.130
366.53	6.140
366.88	6.184
367.24	6.227
367.59	6.299
367.95	6.385
368.30	6.388
368.66	6.345
369.01	6.300
369.37	6.317
369.72	6.351
370.08	6.438
370.43	6.477
370.78	6.451
371.14	6.449
371.49	6.444
371.85	6.436
372.20	6.490
372.56	6.619
372.91	6.676
373.26	6.677
373.62	6.716
373.97	6.733
374.33	6.728
374.68	6.771
375.03	6.805
375.39	6.766
375.74	6.794
376.10	6.745
376.45	6.729
376.80	6.732
377.16	6.745
377.51	6.742
377.87	6.734
378.22	6.768
378.57	6.802
378.93	6.830
379.28	6.872
379.63	6.869
379.99	6.968
380.34	7.005
380.70	7.045
381.05	7.091
381.40	7.117
381.76	7.118
382.11	7.158
382.46	7.160
382.82	7.173
383.17	7.222
383.52	7.253
383.88	7.233
384.23	7.216
384.58	7.192
384.94	7.185
385.29	7.182
385.64	7.200
385.99	7.206
386.35	7.268
386.70	7.278
387.05	7.285
387.41	7.277
387.76	7.302
388.11	7.292
388.47	7.340
388.82	7.311
389.17	7.316
389.52	7.309
389.88	7.311
390.23	7.288
390.58	7.278
390.93	7.282
391.29	7.331
391.64	7.326
391.99	7.354
392.34	7.354
392.70	7.411
393.05	7.403
393.40	7.444
393.75	7.437
394.11	7.407
394.46	7.419
394.81	7.417
395.16	7.373
395.52	7.349
395.87	7.269
396.22	7.223
396.57	7.174
396.92	7.158
397.28	7.161
397.63	7.130
397.98	7.172
398.33	7.152
398.68	7.160
399.04	7.182
399.39	7.185
399.74	7.266
400.09	7.273
400.44	7.278
400.80	7.287
401.15	7.246
401.50	7.243
401.85	7.262
402.20	7.267
402.55	7.259
402.90	7.234
403.26	7.236
403.61	7.249
403.96	7.259
404.31	7.245
404.66	7.248
405.01	7.264
405.36	7.293
405.72	7.251
406.07	7.259
406.42	7.242
406.77	7.234
407.12	7.219
407.47	7.190
407.82	7.154
408.17	7.170
408.53	7.196
408.88	7.200
409.23	7.176
409.58	7.170
409.93	7.149
410.28	7.174
410.63	7.174
410.98	7.192
411.33	7.171
411.68	7.194
412.03	7.178
412.38	7.152
412.73	7.122
413.09	7.105
413.44	7.071
413.79	7.055
414.14	7.025
414.49	7.016
414.84	6.970
415.19	6.952
415.54	6.933
415.89	6.907
416.24	6.882
416.59	6.871
416.94	6.849
417.29	6.855
417.64	6.834
417.99	6.816
418.34	6.813
418.69	6.805
419.04	6.794
419.39	6.786
419.74	6.783
420.09	6.777
420.44	6.771
420.79	6.769
421.14	6.740
421.49	6.735
421.84	6.728
422.19	6.708
422.54	6.734
422.89	6.731
423.24	6.739
423.59	6.742
423.94	6.736
424.29	6.742
424.64	6.740
424.99	6.784
425.34	6.805
425.68	6.817
426.03	6.841
426.38	6.814
426.73	6.823
427.08	6.812
427.43	6.808
427.78	6.835
428.13	6.852
428.48	6.877
428.83	6.866
429.18	6.848
429.53	6.838
429.87	6.842
430.22	6.829
430.57	6.818
430.92	6.808
431.27	6.818
431.62	6.796
431.97	6.770
432.32	6.756
432.67	6.752
433.01	6.760
433.36	6.782
433.71	6.791
434.06	6.820
434.41	6.829
434.76	6.848
435.11	6.840
435.45	6.841
435.80	6.832
436.15	6.834
436.50	6.830
436.85	6.826
437.20	6.824
437.54	6.809
437.89	6.796
438.24	6.821
438.59	6.811
438.94	6.812
439.29	6.816
439.63	6.820
439.98	6.829
440.33	6.826
440.68	6.820
441.03	6.808
441.37	6.802
441.72	6.786
442.07	6.760
442.42	6.756
442.76	6.727
443.11	6.712
443.46	6.698
443.81	6.690
444.16	6.679
444.50	6.676
444.85	6.666
445.20	6.652
445.55	6.643
445.89	6.639
446.24	6.617
446.59	6.627
446.94	6.633
447.28	6.647
447.63	6.640
447.98	6.652
448.32	6.655
448.67	6.649
449.02	6.647
449.37	6.654
449.71	6.650
450.06	6.648
450.41	6.653
450.75	6.640
451.10	6.617
451.45	6.603
451.79	6.594
452.14	6.572
452.49	6.579
452.84	6.576
453.18	6.566
453.53	6.573
453.88	6.593
454.22	6.598
454.57	6.615
454.92	6.634
455.26	6.655
455.61	6.643
455.95	6.673
456.30	6.690
456.65	6.710
456.99	6.734
457.34	6.735
457.69	6.760
458.03	6.760
458.38	6.776
458.73	6.789
459.07	6.802
459.42	6.843
459.76	6.862
460.11	6.872
460.46	6.901
460.80	6.939
461.15	6.971
461.49	6.982
461.84	7.027
462.19	7.063
462.53	7.109
462.88	7.135
463.22	7.156
463.57	7.190
463.91	7.232
464.26	7.279
464.61	7.295
464.95	7.333
465.30	7.375
465.64	7.411
465.99	7.428
466.33	7.441
466.68	7.474
467.02	7.503
467.37	7.526
467.71	7.541
468.06	7.544
468.41	7.561
468.75	7.574
469.10	7.567
469.44	7.576
469.79	7.606
470.13	7.654
470.48	7.629
470.82	7.636
471.17	7.639
471.51	7.643
471.86	7.647
472.20	7.655
472.55	7.679
472.89	7.699
473.23	7.701
473.58	7.687
473.92	7.653
474.27	7.678
474.61	7.668
474.96	7.651
475.30	7.640
475.65	7.639
475.99	7.623
476.34	7.600
476.68	7.604
477.02	7.584
477.37	7.571
477.71	7.575
478.06	7.585
478.40	7.618
478.75	7.668
479.09	7.731
479.43	7.802
479.78	7.897
480.12	7.986
480.47	8.101
480.81	8.226
481.15	8.351
481.50	8.486
481.84	8.650
482.19	8.820
482.53	8.966
482.87	9.041
483.22	9.045
483.56	8.967
483.90	8.849
484.25	8.676
484.59	8.533
484.94	8.427
485.28	8.318
485.62	8.167
485.97	7.996
486.31	7.851
486.65	7.778
487.00	7.775
487.34	7.841
487.68	7.945
488.03	8.078
488.37	8.194
488.71	8.249
489.06	8.282
489.40	8.307
489.74	8.342
490.09	8.380
490.43	8.405
490.77	8.418
491.11	8.463
491.46	8.510
491.80	8.552
492.14	8.569
492.49	8.608
492.83	8.664
493.17	8.721
493.51	8.775
493.86	8.842
494.20	8.919
494.54	8.993
494.88	9.051
495.23	9.125
495.57	9.205
495.91	9.311
496.25	9.393
496.60	9.479
496.94	9.576
497.28	9.698
497.62	9.805
497.97	9.917
498.31	10.067
498.65	10.179
498.99	10.317
499.33	10.463
499.68	10.613
500.02	10.760
500.36	10.905
500.70	11.058
501.04	11.203
501.39	11.345
501.73	11.529
502.07	11.671
502.41	11.860
502.75	12.019
503.09	12.210
503.44	12.406
503.78	12.611
504.12	12.814
504.46	13.048
504.80	13.267
505.14	13.509
505.49	13.707
505.83	13.935
506.17	14.163
506.51	14.384
506.85	14.590
507.19	14.796
507.53	15.032
507.87	15.279
508.22	15.508
508.56	15.739
508.90	16.003
509.24	16.282
509.58	16.553
509.92	16.807
510.26	17.098
510.60	17.400
510.94	17.682
511.28	17.968
511.63	18.270
511.97	18.564
512.31	18.882
512.65	19.158
512.99	19.448
513.33	19.768
513.67	20.113
514.01	20.456
514.35	20.766
514.69	21.113
515.03	21.423
515.37	21.697
515.71	21.987
516.05	22.261
516.39	22.511
516.73	22.761
517.07	23.021
517.41	23.275
517.75	23.495
518.09	23.740
518.43	23.965
518.77	24.215
519.11	24.504
519.45	24.767
519.79	25.044
520.13	25.373
520.47	25.676
520.81	25.984
521.15	26.257
521.49	26.565
521.83	26.833
522.17	27.113
522.51	27.362
522.85	27.575
523.19	27.879
523.53	28.214
523.87	28.555
524.21	28.915
524.55	29.232
524.89	29.542
525.23	29.820
525.57	30.082
525.91	30.311
526.25	30.543
526.58	30.778
526.92	30.959
527.26	31.103
527.60	31.214
527.94	31.296
528.28	31.393
528.62	31.471
528.96	31.558
529.30	31.671
529.64	31.747
529.97	31.843
530.31	31.909
530.65	31.999
530.99	32.115
531.33	32.242
531.67	32.396
532.01	32.536
532.35	32.667
532.68	32.770
533.02	32.851
533.36	32.969
533.70	33.046
534.04	33.174
534.38	33.285
534.71	33.398
535.05	33.510
535.39	33.592
535.73	33.659
536.07	33.785
536.41	33.951
536.74	34.093
537.08	34.225
537.42	34.373
537.76	34.489
538.10	34.632
538.43	34.756
538.77	34.868
539.11	35.004
539.45	35.125
539.79	35.202
540.12	35.266
540.46	35.304
540.80	35.338
541.14	35.363
541.47	35.398
541.81	35.421
542.15	35.461
542.49	35.485
542.82	35.507
543.16	35.524
543.50	35.574
543.84	35.600
544.17	35.665
544.51	35.770
544.85	35.844
545.18	35.889
545.52	35.958
545.86	36.017
546.20	36.103
546.53	36.174
546.87	36.258
547.21	36.317
547.54	36.416
547.88	36.528
548.22	36.584
548.55	36.683
548.89	36.799
549.23	36.880
549.56	36.916
549.90	36.992
550.24	37.027
550.57	37.064
550.91	37.104
551.25	37.095
551.58	37.086
551.92	37.142
552.26	37.184
552.59	37.206
552.93	37.250
553.27	37.322
553.60	37.337
553.94	37.400
554.27	37.454
554.61	37.529
554.95	37.631
555.28	37.688
555.62	37.735
555.95	37.778
556.29	37.816
556.63	37.824
556.96	37.833
557.30	37.869
557.63	37.889
557.97	37.913
558.31	37.893
558.64	37.946
558.98	37.934
559.31	37.897
559.65	37.916
559.98	37.907
560.32	37.908
560.65	37.919
560.99	37.908
561.33	37.892
561.66	37.851
562.00	37.873
562.33	37.819
562.67	37.827
563.00	37.836
563.34	37.815
563.67	37.788
564.01	37.766
564.34	37.743
564.68	37.747
565.01	37.739
565.35	37.752
565.68	37.750
566.02	37.727
566.35	37.759
566.69	37.724
567.02	37.689
567.36	37.712
567.69	37.724
568.03	37.726
568.36	37.699
568.69	37.667
569.03	37.661
569.36	37.607
569.70	37.580
570.03	37.563
570.37	37.576
570.70	37.602
571.04	37.597
571.37	37.562
571.70	37.568
572.04	37.592
572.37	37.598
572.71	37.584
573.04	37.594
573.37	37.630
573.71	37.616
574.04	37.617
574.38	37.620
574.71	37.654
575.04	37.711
575.38	37.742
575.71	37.779
576.05	37.832
576.38	37.904
576.71	37.945
577.05	37.944
577.38	37.975
577.71	37.991
578.05	37.999
578.38	37.968
578.71	37.961
579.05	37.940
579.38	37.904
579.71	37.900
580.05	37.813
580.38	37.813
580.71	37.799
581.05	37.729
581.38	37.711
581.71	37.707
582.05	37.701
582.38	37.657
582.71	37.627
583.04	37.630
583.38	37.603
583.71	37.629
584.04	37.590
584.38	37.588
584.71	37.556
585.04	37.525
585.37	37.451
585.71	37.418
586.04	37.367
586.37	37.303
586.70	37.231
587.04	37.187
587.37	37.150
587.70	37.122
588.03	37.069
588.37	37.093
588.70	37.062
589.03	37.003
589.36	36.977
589.69	36.953
590.03	36.892
590.36	36.831
590.69	36.788
591.02	36.720
591.35	36.639
591.69	36.551
592.02	36.421
592.35	36.297
592.68	36.257
593.01	36.144
593.35	36.094
593.68	36.052
594.01	35.994
594.34	35.922
594.67	35.832
595.00	35.778
595.34	35.710
595.67	35.682
596.00	35.702
596.33	35.642
596.66	35.626
596.99	35.610
597.32	35.597
597.65	35.584
597.99	35.557
598.32	35.602
598.65	35.559
598.98	35.560
599.31	35.513
599.64	35.431
599.97	35.402
600.30	35.293
600.63	35.209
600.96	35.129
601.30	34.994
601.63	34.892
601.96	34.790
602.29	34.737
602.62	34.696
602.95	34.676
603.28	34.647
603.61	34.613
603.94	34.623
604.27	34.576
604.60	34.539
604.93	34.574
605.26	34.563
605.59	34.539
605.92	34.506
606.25	34.476
606.58	34.437
606.91	34.383
607.24	34.363
607.57	34.312
607.90	34.243
608.23	34.196
608.56	34.141
608.89	34.117
609.22	34.102
609.55	34.081
609.88	34.038
610.21	34.028
610.54	34.039
610.87	33.959
611.20	33.972
611.53	33.975
611.86	33.986
612.19	33.990
612.52	33.981
612.85	33.943
613.18	33.906
613.51	33.839
613.84	33.798
614.17	33.772
614.49	33.752
614.82	33.707
615.15	33.698
615.48	33.675
615.81	33.624
616.14	33.539
616.47	33.519
616.80	33.509
617.13	33.500
617.46	33.419
617.78	33.330
618.11	33.300
618.44	33.283
618.77	33.237
619.10	33.183
619.43	33.138
619.76	33.147
620.09	33.095
620.41	33.021
620.74	32.996
621.07	32.940
621.40	32.876
621.73	32.807
622.06	32.693
622.38	32.618
622.71	32.517
623.04	32.435
623.37	32.354
623.70	32.267
624.02	32.225
624.35	32.132
624.68	32.045
625.01	32.010
625.34	31.973
625.66	31.963
625.99	31.934
626.32	31.899
626.65	31.885
626.98	31.855
627.30	31.891
627.63	31.875
627.96	31.903
628.29	31.899
628.61	31.876
628.94	31.851
629.27	31.831
629.60	31.811
629.92	31.762
630.25	31.737
630.58	31.665
630.91	31.517
631.23	31.467
631.56	31.375
631.89	31.375
632.21	31.335
632.54	31.271
632.87	31.180
633.19	31.092
633.52	31.071
633.85	30.997
634.18	30.946
634.50	30.952
634.83	30.941
635.16	30.921
635.48	30.868
635.81	30.850
636.14	30.852
636.46	30.830
636.79	30.817
637.11	30.801
637.44	30.774
637.77	30.760
638.09	30.684
638.42	30.614
638.75	30.547
639.07	30.538
639.40	30.481
639.73	30.462
640.05	30.492
640.38	30.455
640.70	30.384
641.03	30.366
641.36	30.383
641.68	30.340
642.01	30.248
642.33	30.245
642.66	30.234
642.98	30.170
643.31	30.055
643.64	29.934
643.96	29.893
644.29	29.865
644.61	29.789
644.94	29.717
645.26	29.653
645.59	29.642
645.91	29.586
646.24	29.498
646.56	29.438
646.89	29.413
647.22	29.376
647.54	29.351
647.87	29.284
648.19	29.249
648.52	29.179
648.84	29.226
