OOIBase32 Version 2.0.0.6 Data File
++++++++++++++++++++++++++++++++++++
Date: 01-23-2012, 21:49:47
User: Valued Ocean Optics Customer
Spectrometer Serial Number: USB2E2917
Spectrometer Channel: Master
Integration Time (msec): 5
Spectra Averaged: 10
Boxcar Smoothing: 5
Correct for Electrical Dark: Enabled
Time Normalized: Disabled
Dual-beam Reference: Disabled
Reference Channel: Master
Temperature: Not acquired
Spectrometer Type: S2000
ADC Type: USB2000
Number of Pixels in File: 2048
Graph Title: 
>>>>>Begin Spectral Data<<<<<
180.30	0.000
180.67	0.000
181.03	261.931
181.40	288.285
181.77	12202.200
182.14	-2.777
182.51	147.311
182.88	4046.981
183.25	313.133
183.62	-137.161
183.99	4.567
184.36	-161.234
184.73	255.465
185.10	24.510
185.46	14.978
185.83	22.463
186.20	55.446
186.57	505.070
186.94	-22.105
187.31	244.769
187.68	-142.550
188.05	-22.106
188.42	-8.349
188.78	3.034
189.15	12.176
189.52	30.469
189.89	25.287
190.26	6.587
190.63	13.346
191.00	15.571
191.37	22.926
191.73	24.339
192.10	28.711
192.47	23.827
192.84	23.358
193.21	11.342
193.58	11.480
193.94	3.239
194.31	-1.982
194.68	-2.530
195.05	-16.686
195.42	-41.440
195.79	-45.347
196.15	-31.030
196.52	-17.434
196.89	-31.411
197.26	-22.977
197.63	-28.723
198.00	-25.855
198.36	-22.590
198.73	-14.317
199.10	1.508
199.47	11.638
199.84	10.024
200.20	15.818
200.57	-9.240
200.94	-16.570
201.31	-26.237
201.68	-9.796
202.04	-4.813
202.41	2.407
202.78	-6.503
203.15	-13.554
203.51	-28.149
203.88	-21.775
204.25	-28.281
204.62	-1.367
204.98	17.415
205.35	26.794
205.72	31.552
206.09	34.928
206.46	43.142
206.82	41.835
207.19	40.200
207.56	30.531
207.92	18.719
208.29	9.910
208.66	0.466
209.03	-2.813
209.39	-15.154
209.76	-30.726
210.13	-48.428
210.50	-54.372
210.86	-40.268
211.23	-21.894
211.60	-16.592
211.96	3.444
212.33	-0.193
212.70	5.246
213.07	5.485
213.43	15.226
213.80	26.566
214.17	29.270
214.53	31.901
214.90	36.689
215.27	45.713
215.63	48.234
216.00	37.894
216.37	39.348
216.74	36.712
217.10	39.653
217.47	39.795
217.84	29.960
218.20	31.802
218.57	25.732
218.94	6.384
219.30	-6.935
219.67	-2.868
220.04	2.006
220.40	-7.034
220.77	-6.827
221.13	-13.752
221.50	-14.731
221.87	-14.937
222.23	-14.037
222.60	-11.889
222.97	-12.617
223.33	-16.678
223.70	-20.357
224.07	-16.434
224.43	-10.499
224.80	-5.752
225.16	-3.083
225.53	-1.959
225.90	-3.235
226.26	-5.553
226.63	-5.663
226.99	-3.046
227.36	-0.529
227.73	1.048
228.09	-1.022
228.46	-0.840
228.82	0.586
229.19	0.567
229.56	-0.223
229.92	0.065
230.29	2.059
230.65	2.154
231.02	1.345
231.38	-0.359
231.75	-1.418
232.12	0.708
232.48	1.785
232.85	0.286
233.21	2.144
233.58	2.556
233.94	5.463
234.31	4.813
234.68	3.923
235.04	5.194
235.41	7.277
235.77	8.613
236.14	8.329
236.50	5.745
236.87	4.697
237.23	2.698
237.60	2.504
237.96	0.789
238.33	2.321
238.69	3.369
239.06	2.509
239.42	2.098
239.79	1.799
240.15	1.865
240.52	2.012
240.88	2.041
241.25	2.640
241.61	2.834
241.98	3.669
242.34	3.164
242.71	3.287
243.07	3.578
243.44	3.720
243.80	3.937
244.17	3.818
244.53	3.935
244.90	3.851
245.26	3.645
245.63	3.519
245.99	3.205
246.36	3.421
246.72	3.048
247.09	3.091
247.45	3.065
247.81	2.718
248.18	2.720
248.54	2.713
248.91	2.954
249.27	3.108
249.64	3.073
250.00	3.292
250.36	2.924
250.73	2.706
251.09	2.655
251.46	2.648
251.82	3.408
252.19	3.428
252.55	3.386
252.91	3.204
253.28	2.858
253.64	3.147
254.01	3.007
254.37	2.700
254.73	3.272
255.10	3.375
255.46	3.204
255.83	2.468
256.19	2.552
256.55	2.634
256.92	2.617
257.28	2.696
257.65	2.823
258.01	2.973
258.37	3.036
258.74	3.074
259.10	2.829
259.46	2.804
259.83	3.034
260.19	2.856
260.55	2.728
260.92	2.757
261.28	2.771
261.64	2.517
262.01	2.189
262.37	1.996
262.73	1.568
263.10	1.916
263.46	2.373
263.82	2.250
264.19	2.228
264.55	2.393
264.91	2.393
265.28	2.476
265.64	2.385
266.00	2.255
266.37	2.488
266.73	2.829
267.09	2.685
267.46	2.784
267.82	2.985
268.18	3.383
268.54	3.384
268.91	3.597
269.27	3.619
269.63	3.503
270.00	3.419
270.36	3.407
270.72	3.217
271.08	2.869
271.45	2.516
271.81	2.583
272.17	2.437
272.53	2.423
272.90	2.104
273.26	2.048
273.62	2.247
273.98	2.346
274.35	2.178
274.71	2.625
275.07	3.072
275.43	3.357
275.80	3.248
276.16	3.462
276.52	3.424
276.88	3.359
277.25	3.080
277.61	3.118
277.97	2.984
278.33	2.951
278.69	2.378
279.06	2.552
279.42	2.218
279.78	2.291
280.14	2.312
280.50	2.386
280.87	2.659
281.23	2.893
281.59	2.784
281.95	2.999
282.31	3.213
282.68	3.467
283.04	3.480
283.40	3.613
283.76	3.303
284.12	3.200
284.48	3.228
284.85	3.330
285.21	3.139
285.57	3.200
285.93	3.277
286.29	3.287
286.65	3.308
287.02	3.181
287.38	3.173
287.74	3.415
288.10	3.270
288.46	3.062
288.82	2.644
289.18	2.697
289.54	2.661
289.91	2.584
290.27	2.407
290.63	2.399
290.99	2.360
291.35	2.371
291.71	2.568
292.07	2.715
292.43	3.015
292.79	3.462
293.16	3.645
293.52	3.698
293.88	3.728
294.24	3.810
294.60	3.628
294.96	3.717
295.32	3.762
295.68	3.567
296.04	3.743
296.40	3.693
296.76	3.686
297.12	3.733
297.49	3.876
297.85	3.996
298.21	3.992
298.57	4.121
298.93	4.136
299.29	4.208
299.65	4.244
300.01	4.258
300.37	4.225
300.73	4.341
301.09	4.491
301.45	4.623
301.81	4.625
302.17	4.713
302.53	4.643
302.89	4.638
303.25	4.504
303.61	4.653
303.97	4.531
304.33	4.546
304.69	4.471
305.05	4.359
305.41	4.177
305.77	4.184
306.13	4.131
306.49	4.377
306.85	4.391
307.21	4.566
307.57	4.511
307.93	4.494
308.29	4.563
308.65	4.507
309.01	4.459
309.37	4.508
309.73	4.586
310.09	4.628
310.45	4.589
310.81	4.619
311.17	4.469
311.53	4.417
311.89	4.642
312.25	4.563
312.61	4.650
312.96	4.811
313.32	4.895
313.68	4.683
314.04	4.717
314.40	4.688
314.76	4.725
315.12	4.868
315.48	5.068
315.84	4.802
316.20	5.027
316.56	5.089
316.92	4.971
317.27	4.808
317.63	4.885
317.99	5.071
318.35	5.069
318.71	5.029
319.07	4.979
319.43	4.856
319.79	4.950
320.15	4.751
320.50	4.475
320.86	4.564
321.22	4.651
321.58	4.694
321.94	4.478
322.30	4.461
322.66	4.505
323.01	4.553
323.37	4.522
323.73	4.486
324.09	4.543
324.45	4.620
324.81	4.498
325.17	4.489
325.52	4.497
325.88	4.511
326.24	4.587
326.60	4.629
326.96	4.632
327.31	4.594
327.67	4.634
328.03	4.579
328.39	4.513
328.75	4.550
329.11	4.590
329.46	4.493
329.82	4.460
330.18	4.373
330.54	4.278
330.90	4.189
331.25	4.265
331.61	4.162
331.97	4.084
332.33	4.300
332.68	4.259
333.04	4.120
333.40	4.188
333.76	4.203
334.11	4.166
334.47	4.125
334.83	4.136
335.19	4.162
335.54	4.274
335.90	4.365
336.26	4.260
336.62	4.186
336.97	4.153
337.33	4.081
337.69	4.082
338.05	4.086
338.40	4.106
338.76	4.151
339.12	4.101
339.48	4.047
339.83	4.035
340.19	3.984
340.55	3.949
340.90	3.974
341.26	3.959
341.62	3.902
341.97	3.956
342.33	3.998
342.69	3.881
343.04	3.855
343.40	3.870
343.76	3.900
344.12	3.928
344.47	4.048
344.83	4.029
345.19	4.018
345.54	4.047
345.90	4.070
346.26	3.943
346.61	4.089
346.97	4.092
347.32	3.997
347.68	3.908
348.04	3.861
348.39	3.836
348.75	3.965
349.11	3.956
349.46	3.928
349.82	3.824
350.18	3.879
350.53	3.740
350.89	3.727
351.24	3.772
351.60	3.788
351.96	3.806
352.31	3.812
352.67	3.668
353.02	3.688
353.38	3.702
353.74	3.656
354.09	3.600
354.45	3.640
354.80	3.573
355.16	3.493
355.52	3.452
355.87	3.408
356.23	3.311
356.58	3.387
356.94	3.329
357.29	3.335
357.65	3.377
358.00	3.393
358.36	3.335
358.72	3.391
359.07	3.412
359.43	3.472
359.78	3.480
360.14	3.508
360.49	3.445
360.85	3.467
361.20	3.430
361.56	3.430
361.91	3.434
362.27	3.478
362.62	3.412
362.98	3.379
363.33	3.310
363.69	3.271
364.04	3.252
364.40	3.263
364.75	3.273
365.11	3.296
365.46	3.266
365.82	3.234
366.17	3.196
366.53	3.247
366.88	3.226
367.24	3.274
367.59	3.298
367.95	3.321
368.30	3.323
368.66	3.332
369.01	3.331
369.37	3.343
369.72	3.367
370.08	3.381
370.43	3.377
370.78	3.412
371.14	3.380
371.49	3.415
371.85	3.405
372.20	3.362
372.56	3.301
372.91	3.206
373.26	3.200
373.62	3.158
373.97	3.159
374.33	3.189
374.68	3.149
375.03	3.203
375.39	3.125
375.74	3.111
376.10	3.114
376.45	3.156
376.80	3.206
377.16	3.196
377.51	3.190
377.87	3.117
378.22	3.111
378.57	3.174
378.93	3.148
379.28	3.170
379.63	3.178
379.99	3.212
380.34	3.178
380.70	3.174
381.05	3.187
381.40	3.214
381.76	3.244
382.11	3.201
382.46	3.113
382.82	3.042
383.17	3.057
383.52	3.023
383.88	2.952
384.23	2.946
384.58	2.939
384.94	2.941
385.29	2.930
385.64	2.929
385.99	2.946
386.35	3.048
386.70	3.065
387.05	3.022
387.41	3.042
387.76	3.066
388.11	3.034
388.47	3.044
388.82	3.002
389.17	2.966
389.52	2.957
389.88	2.932
390.23	2.908
390.58	2.901
390.93	2.930
391.29	2.928
391.64	2.961
391.99	2.983
392.34	2.982
392.70	2.992
393.05	3.022
393.40	3.038
393.75	3.022
394.11	2.955
394.46	2.958
394.81	2.910
395.16	2.850
395.52	2.800
395.87	2.755
396.22	2.730
396.57	2.716
396.92	2.713
397.28	2.701
397.63	2.670
397.98	2.686
398.33	2.647
398.68	2.655
399.04	2.687
399.39	2.684
399.74	2.691
400.09	2.667
400.44	2.659
400.80	2.630
401.15	2.611
401.50	2.638
401.85	2.673
402.20	2.685
402.55	2.678
402.90	2.639
403.26	2.640
403.61	2.635
403.96	2.639
404.31	2.607
404.66	2.595
405.01	2.611
405.36	2.596
405.72	2.536
406.07	2.520
406.42	2.541
406.77	2.545
407.12	2.540
407.47	2.564
407.82	2.540
408.17	2.562
408.53	2.561
408.88	2.538
409.23	2.517
409.58	2.489
409.93	2.485
410.28	2.457
410.63	2.450
410.98	2.451
411.33	2.417
411.68	2.414
412.03	2.405
412.38	2.415
412.73	2.406
413.09	2.425
413.44	2.449
413.79	2.482
414.14	2.490
414.49	2.519
414.84	2.497
415.19	2.529
415.54	2.559
415.89	2.565
416.24	2.564
416.59	2.575
416.94	2.595
417.29	2.591
417.64	2.568
417.99	2.575
418.34	2.584
418.69	2.593
419.04	2.593
419.39	2.597
419.74	2.607
420.09	2.616
420.44	2.628
420.79	2.608
421.14	2.601
421.49	2.616
421.84	2.616
422.19	2.613
422.54	2.614
422.89	2.600
423.24	2.590
423.59	2.579
423.94	2.567
424.29	2.549
424.64	2.546
424.99	2.559
425.34	2.551
425.68	2.537
426.03	2.537
426.38	2.542
426.73	2.548
427.08	2.525
427.43	2.524
427.78	2.529
428.13	2.525
428.48	2.531
428.83	2.546
429.18	2.535
429.53	2.529
429.87	2.524
430.22	2.513
430.57	2.512
430.92	2.520
431.27	2.522
431.62	2.508
431.97	2.492
432.32	2.486
432.67	2.462
433.01	2.459
433.36	2.469
433.71	2.440
434.06	2.438
434.41	2.445
434.76	2.463
435.11	2.448
435.45	2.450
435.80	2.457
436.15	2.468
436.50	2.476
436.85	2.469
437.20	2.459
437.54	2.468
437.89	2.469
438.24	2.458
438.59	2.442
438.94	2.451
439.29	2.452
439.63	2.452
439.98	2.443
440.33	2.441
440.68	2.443
441.03	2.450
441.37	2.442
441.72	2.430
442.07	2.428
442.42	2.434
442.76	2.430
443.11	2.430
443.46	2.425
443.81	2.418
444.16	2.413
444.50	2.413
444.85	2.408
445.20	2.415
445.55	2.411
445.89	2.402
446.24	2.389
446.59	2.378
446.94	2.369
447.28	2.367
447.63	2.349
447.98	2.347
448.32	2.348
448.67	2.322
449.02	2.294
449.37	2.290
449.71	2.284
450.06	2.268
450.41	2.271
450.75	2.256
451.10	2.244
451.45	2.252
451.79	2.235
452.14	2.220
452.49	2.223
452.84	2.217
453.18	2.205
453.53	2.212
453.88	2.213
454.22	2.198
454.57	2.212
454.92	2.223
455.26	2.237
455.61	2.254
455.95	2.266
456.30	2.299
456.65	2.307
456.99	2.315
457.34	2.318
457.69	2.341
458.03	2.344
458.38	2.354
458.73	2.354
459.07	2.348
459.42	2.339
459.76	2.331
460.11	2.301
460.46	2.301
460.80	2.303
461.15	2.287
461.49	2.253
461.84	2.247
462.19	2.216
462.53	2.204
462.88	2.172
463.22	2.160
463.57	2.178
463.91	2.198
464.26	2.200
464.61	2.196
464.95	2.197
465.30	2.204
465.64	2.206
465.99	2.214
466.33	2.206
466.68	2.236
467.02	2.252
467.37	2.227
467.71	2.206
468.06	2.203
468.41	2.186
468.75	2.193
469.10	2.169
469.44	2.162
469.79	2.145
470.13	2.162
470.48	2.134
470.82	2.112
471.17	2.106
471.51	2.082
471.86	2.070
472.20	2.060
472.55	2.035
472.89	2.047
473.23	2.029
473.58	2.025
473.92	2.008
474.27	2.006
474.61	2.013
474.96	2.003
475.30	2.008
475.65	2.008
475.99	2.033
476.34	2.040
476.68	2.041
477.02	2.056
477.37	2.059
477.71	2.065
478.06	2.086
478.40	2.122
478.75	2.175
479.09	2.233
479.43	2.290
479.78	2.344
480.12	2.398
480.47	2.458
480.81	2.521
481.15	2.593
481.50	2.648
481.84	2.704
482.19	2.761
482.53	2.813
482.87	2.837
483.22	2.832
483.56	2.802
483.90	2.759
484.25	2.701
484.59	2.641
484.94	2.583
485.28	2.538
485.62	2.482
485.97	2.422
486.31	2.357
486.65	2.318
487.00	2.304
487.34	2.309
487.68	2.316
488.03	2.336
488.37	2.349
488.71	2.352
489.06	2.342
489.40	2.323
489.74	2.295
490.09	2.282
490.43	2.259
490.77	2.238
491.11	2.209
491.46	2.198
491.80	2.174
492.14	2.134
492.49	2.103
492.83	2.078
493.17	2.052
493.51	2.040
493.86	2.016
494.20	1.987
494.54	1.969
494.88	1.956
495.23	1.942
495.57	1.937
495.91	1.947
496.25	1.940
496.60	1.926
496.94	1.926
497.28	1.911
497.62	1.904
497.97	1.908
498.31	1.905
498.65	1.881
498.99	1.879
499.33	1.865
499.68	1.863
500.02	1.858
500.36	1.840
500.70	1.830
501.04	1.834
501.39	1.814
501.73	1.819
502.07	1.810
502.41	1.829
502.75	1.818
503.09	1.824
503.44	1.817
503.78	1.817
504.12	1.842
504.46	1.860
504.80	1.869
505.14	1.875
505.49	1.867
505.83	1.887
506.17	1.894
506.51	1.897
506.85	1.879
507.19	1.887
507.53	1.894
507.87	1.892
508.22	1.898
508.56	1.888
508.90	1.898
509.24	1.895
509.58	1.871
509.92	1.863
510.26	1.857
510.60	1.870
510.94	1.863
511.28	1.848
511.63	1.843
511.97	1.820
512.31	1.826
512.65	1.832
512.99	1.833
513.33	1.844
513.67	1.862
514.01	1.884
514.35	1.903
514.69	1.916
515.03	1.943
515.37	1.948
515.71	1.972
516.05	1.976
516.39	1.979
516.73	1.994
517.07	2.007
517.41	2.011
517.75	2.000
518.09	1.990
518.43	1.976
518.77	1.950
519.11	1.945
519.45	1.929
519.79	1.909
520.13	1.903
520.47	1.881
520.81	1.864
521.15	1.857
521.49	1.873
521.83	1.878
522.17	1.913
522.51	1.946
522.85	1.975
523.19	2.008
523.53	2.062
523.87	2.097
524.21	2.153
524.55	2.210
524.89	2.245
525.23	2.281
525.57	2.313
525.91	2.338
526.25	2.366
526.58	2.384
526.92	2.404
527.26	2.414
527.60	2.419
527.94	2.413
528.28	2.395
528.62	2.386
528.96	2.370
529.30	2.350
529.64	2.329
529.97	2.302
530.31	2.277
530.65	2.242
530.99	2.213
531.33	2.198
531.67	2.191
532.01	2.183
532.35	2.180
532.68	2.165
533.02	2.157
533.36	2.134
533.70	2.116
534.04	2.101
534.38	2.095
534.71	2.091
535.05	2.075
535.39	2.047
535.73	2.050
536.07	2.029
536.41	2.029
536.74	2.039
537.08	2.069
537.42	2.097
537.76	2.117
538.10	2.140
538.43	2.155
538.77	2.171
539.11	2.198
539.45	2.205
539.79	2.220
540.12	2.229
540.46	2.232
540.80	2.215
541.14	2.193
541.47	2.189
541.81	2.177
542.15	2.166
542.49	2.145
542.82	2.119
543.16	2.093
543.50	2.064
543.84	2.032
544.17	2.004
544.51	1.985
544.85	1.986
545.18	1.962
545.52	1.933
545.86	1.910
546.20	1.895
546.53	1.869
546.87	1.847
547.21	1.814
547.54	1.797
547.88	1.787
548.22	1.785
548.55	1.766
548.89	1.768
549.23	1.770
549.56	1.739
549.90	1.740
550.24	1.745
550.57	1.756
550.91	1.755
551.25	1.751
551.58	1.744
551.92	1.743
552.26	1.729
552.59	1.697
552.93	1.679
553.27	1.702
553.60	1.674
553.94	1.675
554.27	1.654
554.61	1.667
554.95	1.678
555.28	1.684
555.62	1.678
555.95	1.691
556.29	1.703
556.63	1.713
556.96	1.701
557.30	1.745
557.63	1.738
557.97	1.737
558.31	1.755
558.64	1.769
558.98	1.760
559.31	1.771
559.65	1.773
559.98	1.765
560.32	1.762
560.65	1.765
560.99	1.749
561.33	1.757
561.66	1.781
562.00	1.773
562.33	1.770
562.67	1.778
563.00	1.793
563.34	1.802
563.67	1.806
564.01	1.810
564.34	1.806
564.68	1.806
565.01	1.808
565.35	1.784
565.68	1.795
566.02	1.785
566.35	1.804
566.69	1.787
567.02	1.790
567.36	1.809
567.69	1.832
568.03	1.854
568.36	1.880
568.69	1.879
569.03	1.914
569.36	1.905
569.70	1.905
570.03	1.906
570.37	1.910
570.70	1.922
571.04	1.920
571.37	1.908
571.70	1.911
572.04	1.900
572.37	1.906
572.71	1.896
573.04	1.911
573.37	1.936
573.71	1.927
574.04	1.930
574.38	1.914
574.71	1.902
575.04	1.903
575.38	1.895
575.71	1.879
576.05	1.878
576.38	1.852
576.71	1.815
577.05	1.782
577.38	1.771
577.71	1.762
578.05	1.730
578.38	1.729
578.71	1.705
579.05	1.692
579.38	1.709
579.71	1.675
580.05	1.670
580.38	1.697
580.71	1.686
581.05	1.660
581.38	1.658
581.71	1.662
582.05	1.632
582.38	1.638
582.71	1.646
583.04	1.588
583.38	1.608
583.71	1.617
584.04	1.601
584.38	1.603
584.71	1.615
585.04	1.616
585.37	1.634
585.71	1.654
586.04	1.664
586.37	1.658
586.70	1.697
587.04	1.684
587.37	1.693
587.70	1.702
588.03	1.721
588.37	1.715
588.70	1.720
589.03	1.706
589.36	1.716
589.69	1.684
590.03	1.663
590.36	1.644
590.69	1.669
591.02	1.655
591.35	1.632
591.69	1.607
592.02	1.640
592.35	1.637
592.68	1.637
593.01	1.630
593.35	1.661
593.68	1.677
594.01	1.686
594.34	1.672
594.67	1.675
595.00	1.681
595.34	1.678
595.67	1.651
596.00	1.632
596.33	1.605
596.66	1.566
596.99	1.523
597.32	1.487
597.65	1.456
597.99	1.437
598.32	1.421
598.65	1.420
598.98	1.394
599.31	1.374
599.64	1.372
599.97	1.389
600.30	1.391
600.63	1.407
600.96	1.436
601.30	1.476
601.63	1.481
601.96	1.490
602.29	1.475
602.62	1.489
602.95	1.503
603.28	1.494
603.61	1.480
603.94	1.496
604.27	1.483
604.60	1.463
604.93	1.421
605.26	1.420
605.59	1.372
605.92	1.363
606.25	1.339
606.58	1.330
606.91	1.318
607.24	1.348
607.57	1.341
607.90	1.370
608.23	1.345
608.56	1.345
608.89	1.308
609.22	1.330
609.55	1.296
609.88	1.269
610.21	1.240
610.54	1.215
610.87	1.166
611.20	1.127
611.53	1.065
611.86	1.043
612.19	1.012
612.52	0.972
612.85	0.924
613.18	0.926
613.51	0.913
613.84	0.881
614.17	0.882
614.49	0.836
614.82	0.850
615.15	0.840
615.48	0.847
615.81	0.844
616.14	0.846
616.47	0.849
616.80	0.871
617.13	0.876
617.46	0.882
617.78	0.844
618.11	0.836
618.44	0.795
618.77	0.773
619.10	0.751
619.43	0.717
619.76	0.727
620.09	0.724
620.41	0.679
620.74	0.687
621.07	0.674
621.40	0.694
621.73	0.732
622.06	0.763
622.38	0.809
622.71	0.814
623.04	0.823
623.37	0.886
623.70	0.919
624.02	0.933
624.35	0.945
624.68	0.969
625.01	0.997
625.34	0.984
625.66	0.995
625.99	1.005
626.32	1.021
626.65	1.028
626.98	0.968
627.30	0.943
627.63	0.964
627.96	0.967
628.29	0.940
628.61	0.914
628.94	0.918
629.27	0.882
629.60	0.856
629.92	0.832
630.25	0.847
630.58	0.828
630.91	0.825
631.23	0.802
631.56	0.793
631.89	0.806
632.21	0.822
632.54	0.787
632.87	0.776
633.19	0.767
633.52	0.747
633.85	0.746
634.18	0.723
634.50	0.704
634.83	0.666
635.16	0.632
635.48	0.600
635.81	0.532
636.14	0.552
636.46	0.530
636.79	0.511
637.11	0.542
637.44	0.524
637.77	0.548
638.09	0.516
638.42	0.495
638.75	0.462
639.07	0.459
639.40	0.471
639.73	0.438
640.05	0.480
640.38	0.477
640.70	0.432
641.03	0.406
641.36	0.425
641.68	0.428
642.01	0.409
642.33	0.418
642.66	0.438
642.98	0.425
643.31	0.442
643.64	0.429
643.96	0.424
644.29	0.422
644.61	0.438
644.94	0.415
645.26	0.442
645.59	0.480
645.91	0.517
646.24	0.526
646.56	0.552
646.89	0.533
647.22	0.553
647.54	0.541
647.87	0.568
648.19	0.562
648.52	0.572
648.84	0.583
649.17	0.595
649.49	0.565
649.82	0.548
650.14	0.540
650.47	0.586
650.79	0.559
651.11	0.578
651.44	0.568
651.76	0.568
652.09	0.569
652.41	0.560
652.74	0.553
653.06	0.568
653.39	0.568
653.71	0.594
654.04	0.574
654.36	0.567
654.68	0.556
655.01	0.568
655.33	0.591
655.66	0.595
655.98	0.587
656.30	0.586
656.63	0.633
656.95	0.643
657.28	0.646
657.60	0.647
657.92	0.649
658.25	0.632
658.57	0.605
658.90	0.565
659.22	0.549
