OOIBase32 Version 2.0.0.6 Data File
++++++++++++++++++++++++++++++++++++
Date: 01-23-2012, 22:01:29
User: Valued Ocean Optics Customer
Spectrometer Serial Number: USB2E2917
Spectrometer Channel: Master
Integration Time (msec): 5
Spectra Averaged: 10
Boxcar Smoothing: 5
Correct for Electrical Dark: Enabled
Time Normalized: Disabled
Dual-beam Reference: Disabled
Reference Channel: Master
Temperature: Not acquired
Spectrometer Type: S2000
ADC Type: USB2000
Number of Pixels in File: 2048
Graph Title: 
>>>>>Begin Spectral Data<<<<<
180.30	0.000
180.67	0.000
181.03	278.894
181.40	-143.511
181.77	11181.667
182.14	42.605
182.51	-7.315
182.88	5288.453
183.25	630.847
183.62	118.095
183.99	17.980
184.36	-115.686
184.73	54.432
185.10	-52.143
185.46	44.199
185.83	68.979
186.20	66.175
186.57	75.448
186.94	47.309
187.31	84.953
187.68	-220.985
188.05	48.779
188.42	49.325
188.78	26.090
189.15	25.746
189.52	33.933
189.89	16.660
190.26	-9.753
190.63	-11.760
191.00	-14.615
191.37	-1.073
191.73	1.611
192.10	7.384
192.47	-2.096
192.84	11.334
193.21	14.118
193.58	6.873
193.94	12.534
194.31	13.006
194.68	22.027
195.05	19.343
195.42	5.874
195.79	5.996
196.15	5.635
196.52	11.346
196.89	1.747
197.26	-0.448
197.63	-2.193
198.00	0.192
198.36	1.050
198.73	-5.535
199.10	-2.464
199.47	2.810
199.84	-11.542
200.20	-6.320
200.57	-20.584
200.94	-17.744
201.31	-20.853
201.68	0.178
202.04	-4.126
202.41	10.191
202.78	1.868
203.15	-1.160
203.51	-17.666
203.88	-2.987
204.25	-23.151
204.62	-8.703
204.98	-1.510
205.35	-3.177
205.72	0.523
206.09	5.098
206.46	12.941
206.82	11.091
207.19	3.723
207.56	2.090
207.92	-10.448
208.29	-0.519
208.66	7.805
209.03	11.696
209.39	11.130
209.76	-8.159
210.13	-18.012
210.50	-38.223
210.86	-30.944
211.23	-5.141
211.60	4.910
211.96	17.752
212.33	9.411
212.70	10.292
213.07	1.902
213.43	3.373
213.80	5.849
214.17	-1.269
214.53	-2.270
214.90	6.031
215.27	-2.895
215.63	-10.430
216.00	-12.850
216.37	2.843
216.74	-7.654
217.10	-4.749
217.47	-3.713
217.84	9.590
218.20	22.181
218.57	29.568
218.94	26.615
219.30	27.556
219.67	28.181
220.04	27.790
220.40	21.419
220.77	20.900
221.13	17.435
221.50	15.767
221.87	1.281
222.23	-2.756
222.60	2.304
222.97	-7.286
223.33	-9.375
223.70	-8.750
224.07	-7.287
224.43	-3.920
224.80	-1.778
225.16	-1.947
225.53	-0.997
225.90	-3.179
226.26	-5.078
226.63	-8.324
226.99	-6.586
227.36	-5.004
227.73	-5.055
228.09	-8.124
228.46	-9.981
228.82	-9.403
229.19	-8.482
229.56	-10.223
229.92	-6.869
230.29	-4.641
230.65	-1.911
231.02	-1.123
231.38	-3.342
231.75	-2.881
232.12	0.180
232.48	3.102
232.85	4.088
233.21	6.835
233.58	8.474
233.94	8.144
234.31	5.438
234.68	3.346
235.04	2.430
235.41	4.166
235.77	3.918
236.14	1.819
236.50	0.059
236.87	-0.696
237.23	-2.600
237.60	-2.971
237.96	-4.017
238.33	-1.094
238.69	-0.572
239.06	-0.267
239.42	-0.272
239.79	0.172
240.15	1.529
240.52	1.603
240.88	1.672
241.25	2.048
241.61	2.412
241.98	3.226
242.34	2.759
242.71	3.248
243.07	3.461
243.44	3.531
243.80	3.608
244.17	3.749
244.53	3.646
244.90	3.445
245.26	3.678
245.63	3.525
245.99	3.349
246.36	3.633
246.72	3.289
247.09	3.131
247.45	2.964
247.81	2.796
248.18	2.313
248.54	2.331
248.91	2.358
249.27	2.490
249.64	2.689
250.00	3.114
250.36	2.852
250.73	2.993
251.09	3.117
251.46	3.180
251.82	3.436
252.19	3.628
252.55	3.525
252.91	3.808
253.28	2.774
253.64	2.421
254.01	2.067
254.37	1.942
254.73	2.336
255.10	2.841
255.46	2.793
255.83	2.439
256.19	2.452
256.55	2.456
256.92	2.197
257.28	2.392
257.65	2.667
258.01	2.760
258.37	2.736
258.74	2.707
259.10	2.489
259.46	2.652
259.83	2.862
260.19	2.669
260.55	2.540
260.92	2.830
261.28	2.729
261.64	2.569
262.01	2.690
262.37	2.596
262.73	2.436
263.10	2.720
263.46	3.032
263.82	3.112
264.19	3.122
264.55	3.439
264.91	3.285
265.28	3.539
265.64	3.189
266.00	2.727
266.37	2.740
266.73	2.866
267.09	2.550
267.46	2.316
267.82	2.326
268.18	2.536
268.54	2.505
268.91	2.686
269.27	2.707
269.63	2.776
270.00	2.882
270.36	2.806
270.72	2.540
271.08	2.328
271.45	2.263
271.81	2.298
272.17	2.412
272.53	2.123
272.90	1.846
273.26	1.725
273.62	1.859
273.98	1.765
274.35	1.733
274.71	2.027
275.07	2.194
275.43	2.310
275.80	2.364
276.16	2.645
276.52	2.702
276.88	2.817
277.25	2.718
277.61	2.904
277.97	2.903
278.33	2.650
278.69	2.339
279.06	2.481
279.42	2.017
279.78	1.714
280.14	1.488
280.50	1.885
280.87	1.997
281.23	2.202
281.59	2.031
281.95	2.188
282.31	2.531
282.68	2.748
283.04	2.851
283.40	3.153
283.76	3.071
284.12	3.021
284.48	2.811
284.85	2.648
285.21	2.388
285.57	2.381
285.93	2.399
286.29	2.382
286.65	2.303
287.02	2.127
287.38	1.933
287.74	2.081
288.10	2.037
288.46	2.032
288.82	1.871
289.18	2.058
289.54	2.000
289.91	2.069
290.27	2.155
290.63	2.301
290.99	2.453
291.35	2.561
291.71	2.620
292.07	2.476
292.43	2.496
292.79	2.879
293.16	2.931
293.52	3.027
293.88	3.013
294.24	2.919
294.60	2.685
294.96	2.568
295.32	2.702
295.68	2.583
296.04	2.836
296.40	2.865
296.76	2.722
297.12	2.741
297.49	2.824
297.85	2.755
298.21	2.860
298.57	3.024
298.93	3.143
299.29	2.995
299.65	3.008
300.01	2.864
300.37	2.836
300.73	3.107
301.09	3.173
301.45	3.131
301.81	3.032
302.17	2.941
302.53	2.928
302.89	2.968
303.25	2.999
303.61	3.124
303.97	3.102
304.33	3.137
304.69	2.920
305.05	2.773
305.41	2.620
305.77	2.873
306.13	2.856
306.49	2.980
306.85	2.941
307.21	3.009
307.57	3.075
307.93	3.181
308.29	3.250
308.65	3.253
309.01	3.350
309.37	3.573
309.73	3.482
310.09	3.502
310.45	3.466
310.81	3.430
311.17	3.336
311.53	3.305
311.89	3.388
312.25	3.343
312.61	3.461
312.96	3.495
313.32	3.458
313.68	3.381
314.04	3.478
314.40	3.470
314.76	3.536
315.12	3.699
315.48	3.764
315.84	3.616
316.20	3.753
316.56	3.719
316.92	3.639
317.27	3.549
317.63	3.611
317.99	3.647
318.35	3.599
318.71	3.570
319.07	3.537
319.43	3.454
319.79	3.393
320.15	3.272
320.50	3.091
320.86	3.117
321.22	3.165
321.58	3.103
321.94	3.001
322.30	3.056
322.66	3.131
323.01	3.121
323.37	3.159
323.73	3.241
324.09	3.284
324.45	3.444
324.81	3.400
325.17	3.351
325.52	3.455
325.88	3.423
326.24	3.542
326.60	3.719
326.96	3.809
327.31	3.703
327.67	3.727
328.03	3.692
328.39	3.634
328.75	3.691
329.11	3.811
329.46	3.830
329.82	3.944
330.18	3.844
330.54	3.676
330.90	3.682
331.25	3.824
331.61	3.732
331.97	3.709
332.33	3.760
332.68	3.690
333.04	3.575
333.40	3.580
333.76	3.526
334.11	3.437
334.47	3.364
334.83	3.265
335.19	3.239
335.54	3.337
335.90	3.406
336.26	3.365
336.62	3.379
336.97	3.361
337.33	3.293
337.69	3.353
338.05	3.410
338.40	3.438
338.76	3.502
339.12	3.493
339.48	3.535
339.83	3.529
340.19	3.558
340.55	3.520
340.90	3.529
341.26	3.531
341.62	3.436
341.97	3.502
342.33	3.511
342.69	3.487
343.04	3.445
343.40	3.275
343.76	3.258
344.12	3.267
344.47	3.373
344.83	3.321
345.19	3.299
345.54	3.366
345.90	3.335
346.26	3.265
346.61	3.291
346.97	3.270
347.32	3.412
347.68	3.364
348.04	3.356
348.39	3.346
348.75	3.504
349.11	3.506
349.46	3.442
349.82	3.382
350.18	3.434
350.53	3.333
350.89	3.396
351.24	3.371
351.60	3.348
351.96	3.373
352.31	3.363
352.67	3.276
353.02	3.269
353.38	3.250
353.74	3.242
354.09	3.246
354.45	3.360
354.80	3.309
355.16	3.264
355.52	3.304
355.87	3.221
356.23	3.174
356.58	3.166
356.94	3.190
357.29	3.186
357.65	3.159
358.00	3.128
358.36	3.031
358.72	3.099
359.07	3.115
359.43	3.123
359.78	3.190
360.14	3.204
360.49	3.230
360.85	3.233
361.20	3.314
361.56	3.401
361.91	3.412
362.27	3.413
362.62	3.349
362.98	3.316
363.33	3.311
363.69	3.228
364.04	3.207
364.40	3.196
364.75	3.164
365.11	3.174
365.46	3.131
365.82	3.082
366.17	3.110
366.53	3.106
366.88	3.121
367.24	3.142
367.59	3.214
367.95	3.254
368.30	3.239
368.66	3.242
369.01	3.158
369.37	3.194
369.72	3.213
370.08	3.203
370.43	3.195
370.78	3.165
371.14	3.145
371.49	3.132
371.85	3.104
372.20	3.128
372.56	3.179
372.91	3.170
373.26	3.122
373.62	3.116
373.97	3.157
374.33	3.136
374.68	3.182
375.03	3.204
375.39	3.175
375.74	3.209
376.10	3.176
376.45	3.184
376.80	3.210
377.16	3.242
377.51	3.288
377.87	3.260
378.22	3.303
378.57	3.319
378.93	3.319
379.28	3.349
379.63	3.354
379.99	3.402
380.34	3.357
380.70	3.359
381.05	3.392
381.40	3.396
381.76	3.395
382.11	3.427
382.46	3.426
382.82	3.400
383.17	3.425
383.52	3.418
383.88	3.374
384.23	3.367
384.58	3.342
384.94	3.300
385.29	3.291
385.64	3.299
385.99	3.270
386.35	3.278
386.70	3.290
387.05	3.271
387.41	3.273
387.76	3.304
388.11	3.315
388.47	3.382
388.82	3.390
389.17	3.400
389.52	3.401
389.88	3.419
390.23	3.466
390.58	3.496
390.93	3.507
391.29	3.522
391.64	3.517
391.99	3.546
392.34	3.528
392.70	3.519
393.05	3.516
393.40	3.557
393.75	3.549
394.11	3.496
394.46	3.483
394.81	3.491
395.16	3.439
395.52	3.471
395.87	3.449
396.22	3.447
396.57	3.453
396.92	3.439
397.28	3.436
397.63	3.408
397.98	3.452
398.33	3.472
398.68	3.464
399.04	3.496
399.39	3.494
399.74	3.520
400.09	3.510
400.44	3.518
400.80	3.525
401.15	3.527
401.50	3.552
401.85	3.569
402.20	3.561
402.55	3.595
402.90	3.629
403.26	3.620
403.61	3.637
403.96	3.677
404.31	3.709
404.66	3.765
405.01	3.750
405.36	3.806
405.72	3.775
406.07	3.805
406.42	3.797
406.77	3.780
407.12	3.784
407.47	3.798
407.82	3.782
408.17	3.738
408.53	3.707
408.88	3.751
409.23	3.747
409.58	3.763
409.93	3.753
410.28	3.784
410.63	3.816
410.98	3.861
411.33	3.835
411.68	3.861
412.03	3.940
412.38	3.981
412.73	3.991
413.09	3.993
413.44	4.008
413.79	4.058
414.14	4.067
414.49	4.083
414.84	4.096
415.19	4.156
415.54	4.174
415.89	4.198
416.24	4.204
416.59	4.217
416.94	4.253
417.29	4.283
417.64	4.284
417.99	4.310
418.34	4.332
418.69	4.335
419.04	4.346
419.39	4.381
419.74	4.385
420.09	4.413
420.44	4.430
420.79	4.433
421.14	4.437
421.49	4.458
421.84	4.467
422.19	4.472
422.54	4.511
422.89	4.515
423.24	4.516
423.59	4.532
423.94	4.534
424.29	4.552
424.64	4.550
424.99	4.571
425.34	4.577
425.68	4.593
426.03	4.630
426.38	4.610
426.73	4.624
427.08	4.625
427.43	4.655
427.78	4.687
428.13	4.692
428.48	4.738
428.83	4.766
429.18	4.776
429.53	4.788
429.87	4.796
430.22	4.799
430.57	4.808
430.92	4.813
431.27	4.806
431.62	4.806
431.97	4.814
432.32	4.828
432.67	4.817
433.01	4.820
433.36	4.834
433.71	4.842
434.06	4.873
434.41	4.902
434.76	4.951
435.11	4.973
435.45	4.986
435.80	5.007
436.15	5.019
436.50	5.040
436.85	5.060
437.20	5.058
437.54	5.066
437.89	5.068
438.24	5.080
438.59	5.077
438.94	5.084
439.29	5.098
439.63	5.112
439.98	5.119
440.33	5.124
440.68	5.148
441.03	5.172
441.37	5.194
441.72	5.217
442.07	5.221
442.42	5.242
442.76	5.263
443.11	5.278
443.46	5.284
443.81	5.296
444.16	5.303
444.50	5.307
444.85	5.322
445.20	5.333
445.55	5.359
445.89	5.366
446.24	5.360
446.59	5.362
446.94	5.366
447.28	5.372
447.63	5.378
447.98	5.412
448.32	5.434
448.67	5.435
449.02	5.433
449.37	5.423
449.71	5.427
450.06	5.438
450.41	5.461
450.75	5.478
451.10	5.497
451.45	5.519
451.79	5.503
452.14	5.495
452.49	5.506
452.84	5.514
453.18	5.521
453.53	5.551
453.88	5.565
454.22	5.559
454.57	5.560
454.92	5.572
455.26	5.598
455.61	5.622
455.95	5.638
456.30	5.659
456.65	5.681
456.99	5.708
457.34	5.725
457.69	5.754
458.03	5.771
458.38	5.802
458.73	5.820
459.07	5.834
459.42	5.854
459.76	5.867
460.11	5.873
460.46	5.883
460.80	5.896
461.15	5.900
461.49	5.885
461.84	5.906
462.19	5.906
462.53	5.917
462.88	5.912
463.22	5.928
463.57	5.952
463.91	5.976
464.26	6.007
464.61	6.006
464.95	6.023
465.30	6.043
465.64	6.051
465.99	6.080
466.33	6.094
466.68	6.114
467.02	6.127
467.37	6.138
467.71	6.143
468.06	6.146
468.41	6.166
468.75	6.183
469.10	6.195
469.44	6.210
469.79	6.212
470.13	6.238
470.48	6.210
470.82	6.211
471.17	6.220
471.51	6.207
471.86	6.205
472.20	6.201
472.55	6.211
472.89	6.227
473.23	6.231
473.58	6.241
473.92	6.227
474.27	6.252
474.61	6.273
474.96	6.269
475.30	6.267
475.65	6.260
475.99	6.277
476.34	6.280
476.68	6.295
477.02	6.308
477.37	6.307
477.71	6.335
478.06	6.386
478.40	6.440
478.75	6.529
479.09	6.638
479.43	6.739
479.78	6.831
480.12	6.948
480.47	7.072
480.81	7.201
481.15	7.341
481.50	7.464
481.84	7.609
482.19	7.759
482.53	7.888
482.87	7.956
483.22	7.962
483.56	7.910
483.90	7.805
484.25	7.663
484.59	7.534
484.94	7.422
485.28	7.332
485.62	7.206
485.97	7.063
486.31	6.930
486.65	6.865
487.00	6.860
487.34	6.904
487.68	6.979
488.03	7.079
488.37	7.145
488.71	7.173
489.06	7.178
489.40	7.172
489.74	7.170
490.09	7.170
490.43	7.156
490.77	7.145
491.11	7.142
491.46	7.140
491.80	7.128
492.14	7.117
492.49	7.114
492.83	7.104
493.17	7.097
493.51	7.097
493.86	7.106
494.20	7.115
494.54	7.130
494.88	7.130
495.23	7.151
495.57	7.176
495.91	7.211
496.25	7.242
496.60	7.266
496.94	7.295
497.28	7.312
497.62	7.338
497.97	7.353
498.31	7.373
498.65	7.387
498.99	7.399
499.33	7.422
499.68	7.446
500.02	7.456
500.36	7.484
500.70	7.502
501.04	7.537
501.39	7.546
501.73	7.603
502.07	7.642
502.41	7.686
502.75	7.709
503.09	7.749
503.44	7.774
503.78	7.813
504.12	7.839
504.46	7.887
504.80	7.925
505.14	7.970
505.49	7.979
505.83	8.024
506.17	8.054
506.51	8.093
506.85	8.110
507.19	8.155
507.53	8.172
507.87	8.211
508.22	8.243
508.56	8.266
508.90	8.288
509.24	8.313
509.58	8.317
509.92	8.339
510.26	8.379
510.60	8.409
510.94	8.419
511.28	8.452
511.63	8.489
511.97	8.501
512.31	8.518
512.65	8.547
512.99	8.594
513.33	8.636
513.67	8.673
514.01	8.717
514.35	8.774
514.69	8.823
515.03	8.871
515.37	8.893
515.71	8.941
516.05	8.984
516.39	9.014
516.73	9.042
517.07	9.066
517.41	9.098
517.75	9.088
518.09	9.084
518.43	9.099
518.77	9.107
519.11	9.111
519.45	9.115
519.79	9.115
520.13	9.137
520.47	9.137
520.81	9.162
521.15	9.179
521.49	9.239
521.83	9.290
522.17	9.338
522.51	9.385
522.85	9.428
523.19	9.510
523.53	9.607
523.87	9.686
524.21	9.795
524.55	9.872
524.89	9.949
525.23	10.015
525.57	10.083
525.91	10.136
526.25	10.187
526.58	10.241
526.92	10.268
527.26	10.282
527.60	10.298
527.94	10.287
528.28	10.281
528.62	10.265
528.96	10.242
529.30	10.222
529.64	10.205
529.97	10.180
530.31	10.157
530.65	10.135
530.99	10.128
531.33	10.126
531.67	10.136
532.01	10.142
532.35	10.154
532.68	10.161
533.02	10.149
533.36	10.141
533.70	10.145
534.04	10.147
534.38	10.152
534.71	10.152
535.05	10.160
535.39	10.159
535.73	10.181
536.07	10.199
536.41	10.237
536.74	10.283
537.08	10.330
537.42	10.381
537.76	10.426
538.10	10.460
538.43	10.507
538.77	10.531
539.11	10.568
539.45	10.595
539.79	10.632
540.12	10.647
540.46	10.658
540.80	10.659
541.14	10.635
541.47	10.639
541.81	10.641
542.15	10.640
542.49	10.624
542.82	10.602
543.16	10.582
543.50	10.553
543.84	10.558
544.17	10.555
544.51	10.562
544.85	10.585
545.18	10.597
545.52	10.601
545.86	10.597
546.20	10.614
546.53	10.628
546.87	10.631
547.21	10.626
547.54	10.604
547.88	10.615
548.22	10.618
548.55	10.639
548.89	10.633
549.23	10.649
549.56	10.653
549.90	10.689
550.24	10.729
550.57	10.754
550.91	10.779
551.25	10.819
551.58	10.836
551.92	10.849
552.26	10.854
552.59	10.865
552.93	10.865
553.27	10.885
553.60	10.881
553.94	10.875
554.27	10.899
554.61	10.935
554.95	10.942
555.28	10.949
555.62	10.975
555.95	10.987
556.29	11.033
556.63	11.075
556.96	11.102
557.30	11.135
557.63	11.167
557.97	11.192
558.31	11.227
558.64	11.248
558.98	11.277
559.31	11.318
559.65	11.351
559.98	11.355
560.32	11.394
560.65	11.423
560.99	11.452
561.33	11.466
561.66	11.487
562.00	11.483
562.33	11.504
562.67	11.523
563.00	11.554
563.34	11.588
563.67	11.608
564.01	11.619
564.34	11.615
564.68	11.632
565.01	11.659
565.35	11.664
565.68	11.690
566.02	11.724
566.35	11.767
566.69	11.771
567.02	11.779
567.36	11.804
567.69	11.821
568.03	11.861
568.36	11.874
568.69	11.904
569.03	11.951
569.36	11.987
569.70	12.002
570.03	12.010
570.37	12.039
570.70	12.094
571.04	12.129
571.37	12.156
571.70	12.184
572.04	12.211
572.37	12.222
572.71	12.226
573.04	12.254
573.37	12.279
573.71	12.306
574.04	12.323
574.38	12.327
574.71	12.341
575.04	12.364
575.38	12.375
575.71	12.406
576.05	12.441
576.38	12.472
576.71	12.480
577.05	12.502
577.38	12.526
577.71	12.563
578.05	12.567
578.38	12.587
578.71	12.611
579.05	12.624
579.38	12.646
579.71	12.640
580.05	12.649
580.38	12.682
580.71	12.697
581.05	12.716
581.38	12.727
581.71	12.768
582.05	12.785
582.38	12.821
582.71	12.887
583.04	12.893
583.38	12.943
583.71	12.984
584.04	12.998
584.38	13.043
584.71	13.063
585.04	13.097
585.37	13.116
585.71	13.118
586.04	13.124
586.37	13.142
586.70	13.203
587.04	13.227
587.37	13.233
587.70	13.269
588.03	13.298
588.37	13.320
588.70	13.311
589.03	13.345
589.36	13.402
589.69	13.426
590.03	13.422
590.36	13.407
590.69	13.461
591.02	13.478
591.35	13.480
591.69	13.474
592.02	13.505
592.35	13.524
592.68	13.535
593.01	13.558
593.35	13.579
593.68	13.596
594.01	13.619
594.34	13.622
594.67	13.662
595.00	13.674
595.34	13.688
595.67	13.682
596.00	13.725
596.33	13.738
596.66	13.737
596.99	13.758
597.32	13.779
597.65	13.823
597.99	13.823
598.32	13.849
598.65	13.893
598.98	13.918
599.31	13.952
599.64	13.990
599.97	14.012
600.30	14.012
600.63	14.040
600.96	14.080
601.30	14.109
601.63	14.118
601.96	14.136
602.29	14.133
602.62	14.160
602.95	14.192
603.28	14.186
603.61	14.209
603.94	14.250
604.27	14.264
604.60	14.272
604.93	14.255
605.26	14.286
605.59	14.309
605.92	14.365
606.25	14.386
606.58	14.415
606.91	14.429
607.24	14.467
607.57	14.494
607.90	14.503
608.23	14.511
608.56	14.541
608.89	14.541
609.22	14.552
609.55	14.561
609.88	14.572
610.21	14.559
610.54	14.584
610.87	14.572
611.20	14.578
611.53	14.618
611.86	14.661
612.19	14.714
612.52	14.768
612.85	14.798
613.18	14.818
613.51	14.833
613.84	14.842
614.17	14.886
614.49	14.909
614.82	14.931
615.15	14.951
615.48	14.962
615.81	14.974
616.14	15.004
616.47	15.025
616.80	15.032
617.13	15.065
617.46	15.138
617.78	15.157
618.11	15.192
618.44	15.247
618.77	15.280
619.10	15.300
619.43	15.313
619.76	15.334
620.09	15.340
620.41	15.401
620.74	15.450
621.07	15.429
621.40	15.427
621.73	15.477
622.06	15.518
622.38	15.566
622.71	15.610
623.04	15.669
623.37	15.697
623.70	15.726
624.02	15.748
624.35	15.812
624.68	15.854
625.01	15.936
625.34	15.978
625.66	15.993
625.99	16.001
626.32	16.034
626.65	16.048
626.98	16.084
627.30	16.164
627.63	16.190
627.96	16.169
628.29	16.203
628.61	16.237
628.94	16.250
629.27	16.288
629.60	16.353
629.92	16.359
630.25	16.399
630.58	16.419
630.91	16.426
631.23	16.455
631.56	16.491
631.89	16.566
632.21	16.571
632.54	16.569
632.87	16.572
633.19	16.557
633.52	16.603
633.85	16.608
634.18	16.607
634.50	16.649
634.83	16.666
635.16	16.706
635.48	16.692
635.81	16.712
636.14	16.758
636.46	16.812
636.79	16.887
637.11	16.940
637.44	16.989
637.77	16.996
638.09	16.948
638.42	16.960
638.75	16.967
639.07	16.994
639.40	17.002
639.73	17.078
640.05	17.095
640.38	17.066
640.70	17.060
641.03	17.066
641.36	17.172
641.68	17.206
642.01	17.240
642.33	17.310
642.66	17.408
642.98	17.437
643.31	17.442
643.64	17.475
643.96	17.511
644.29	17.563
644.61	17.632
644.94	17.650
645.26	17.735
645.59	17.794
645.91	17.806
646.24	17.829
646.56	17.876
646.89	17.919
647.22	17.997
647.54	18.039
647.87	18.052
648.19	18.041
648.52	18.131
648.84	18.142
649.17	18.152
649.49	18.132
649.82	18.099
650.14	18.118
650.47	18.120
650.79	18.119
651.11	18.125
