OOIBase32 Version 2.0.0.6 Data File
++++++++++++++++++++++++++++++++++++
Date: 01-23-2012, 22:02:41
User: Valued Ocean Optics Customer
Spectrometer Serial Number: USB2E2917
Spectrometer Channel: Master
Integration Time (msec): 5
Spectra Averaged: 10
Boxcar Smoothing: 5
Correct for Electrical Dark: Enabled
Time Normalized: Disabled
Dual-beam Reference: Disabled
Reference Channel: Master
Temperature: Not acquired
Spectrometer Type: S2000
ADC Type: USB2000
Number of Pixels in File: 2048
Graph Title: 
>>>>>Begin Spectral Data<<<<<
180.30	0.000
180.67	0.000
181.03	171.977
181.40	-6.741
181.77	6255.000
182.14	26.907
182.51	108.784
182.88	5313.136
183.25	-109.450
183.62	-4.258
183.99	86.000
184.36	-137.011
184.73	-2.688
185.10	49.083
185.46	107.960
185.83	167.646
186.20	16.919
186.57	590.126
186.94	-1.780
187.31	75.445
187.68	-85.113
188.05	-40.509
188.42	-32.819
188.78	-15.313
189.15	-22.978
189.52	-15.660
189.89	-7.637
190.26	-33.904
190.63	-6.827
191.00	-13.181
191.37	-5.058
191.73	6.997
192.10	3.190
192.47	5.497
192.84	-0.068
193.21	0.925
193.58	-5.358
193.94	-12.840
194.31	-19.612
194.68	-20.436
195.05	-31.202
195.42	-46.868
195.79	-60.196
196.15	-56.009
196.52	-52.672
196.89	-69.702
197.26	-53.880
197.63	-51.877
198.00	-52.974
198.36	-27.532
198.73	-34.790
199.10	-25.329
199.47	-24.575
199.84	-21.775
200.20	-11.271
200.57	-38.480
200.94	-18.794
201.31	-24.676
201.68	-11.071
202.04	-9.360
202.41	-7.594
202.78	-11.334
203.15	-18.243
203.51	-35.938
203.88	-45.810
204.25	-59.607
204.62	-34.956
204.98	-36.163
205.35	-38.416
205.72	-46.464
206.09	-40.032
206.46	-56.074
206.82	-52.156
207.19	-53.441
207.56	-37.094
207.92	-34.546
208.29	-20.849
208.66	-25.785
209.03	-20.397
209.39	-26.472
209.76	-27.228
210.13	-31.354
210.50	-30.238
210.86	-21.660
211.23	-1.254
211.60	3.212
211.96	8.491
212.33	0.896
212.70	11.549
213.07	1.383
213.43	6.431
213.80	1.698
214.17	-1.457
214.53	1.574
214.90	0.368
215.27	-11.615
215.63	-22.208
216.00	-33.669
216.37	-26.337
216.74	-42.423
217.10	-29.464
217.47	-36.076
217.84	-32.484
218.20	-14.376
218.57	-9.875
218.94	-9.252
219.30	-6.393
219.67	6.249
220.04	9.322
220.40	1.413
220.77	4.085
221.13	-9.708
221.50	-13.252
221.87	-8.247
222.23	-14.024
222.60	-15.515
222.97	-19.626
223.33	-20.306
223.70	-22.410
224.07	-12.818
224.43	-10.075
224.80	-9.021
225.16	-7.362
225.53	-6.046
225.90	-10.946
226.26	-13.519
226.63	-15.031
226.99	-12.709
227.36	-10.283
227.73	-10.475
228.09	-14.303
228.46	-13.902
228.82	-12.855
229.19	-14.117
229.56	-16.167
229.92	-13.502
230.29	-10.390
230.65	-9.115
231.02	-10.278
231.38	-13.695
231.75	-15.320
232.12	-13.481
232.48	-11.140
232.85	-10.447
233.21	-6.927
233.58	-4.182
233.94	-2.245
234.31	-5.090
234.68	-5.714
235.04	-4.956
235.41	-2.575
235.77	-0.030
236.14	-0.281
236.50	-3.562
236.87	-4.401
237.23	-5.694
237.60	-5.513
237.96	-5.954
238.33	-4.223
238.69	-3.555
239.06	-3.734
239.42	-3.940
239.79	-3.535
240.15	-3.017
240.52	-2.518
240.88	-1.626
241.25	-1.024
241.61	-1.129
241.98	-0.716
242.34	-0.958
242.71	-0.231
243.07	0.181
243.44	0.438
243.80	0.262
244.17	0.347
244.53	0.666
244.90	0.170
245.26	0.094
245.63	-0.082
245.99	-0.243
246.36	0.061
246.72	-0.645
247.09	-0.690
247.45	-0.990
247.81	-1.239
248.18	-1.805
248.54	-1.957
248.91	-2.063
249.27	-2.163
249.64	-1.865
250.00	-1.933
250.36	-1.938
250.73	-1.408
251.09	-1.238
251.46	-0.575
251.82	-0.436
252.19	0.159
252.55	-0.119
252.91	0.222
253.28	-0.382
253.64	-0.430
254.01	-0.562
254.37	-1.037
254.73	-0.550
255.10	-0.570
255.46	-1.118
255.83	-0.894
256.19	-0.897
256.55	-0.768
256.92	-0.818
257.28	-0.570
257.65	-0.439
258.01	-0.323
258.37	-0.393
258.74	-0.593
259.10	-0.673
259.46	-0.482
259.83	-0.452
260.19	-0.554
260.55	-0.571
260.92	-0.685
261.28	-0.816
261.64	-0.913
262.01	-0.861
262.37	-0.968
262.73	-1.244
263.10	-1.215
263.46	-0.921
263.82	-1.220
264.19	-1.293
264.55	-1.341
264.91	-0.948
265.28	-0.454
265.64	-0.628
266.00	-1.027
266.37	-1.009
266.73	-0.556
267.09	-0.564
267.46	-0.639
267.82	-0.503
268.18	-0.335
268.54	-0.472
268.91	-0.391
269.27	-0.645
269.63	-0.575
270.00	-0.503
270.36	-0.363
270.72	-0.349
271.08	-0.510
271.45	-0.460
271.81	-0.229
272.17	-0.143
272.53	-0.065
272.90	-0.547
273.26	-0.738
273.62	-0.742
273.98	-0.657
274.35	-0.672
274.71	-0.564
275.07	-0.402
275.43	-0.472
275.80	-0.504
276.16	-0.158
276.52	-0.217
276.88	0.012
277.25	-0.004
277.61	0.081
277.97	0.077
278.33	-0.015
278.69	-0.371
279.06	-0.310
279.42	-0.661
279.78	-0.894
280.14	-1.374
280.50	-1.142
280.87	-0.838
281.23	-0.410
281.59	-0.466
281.95	-0.273
282.31	-0.125
282.68	-0.041
283.04	0.016
283.40	0.207
283.76	0.146
284.12	0.255
284.48	0.288
284.85	0.071
285.21	-0.184
285.57	-0.101
285.93	-0.257
286.29	-0.346
286.65	-0.305
287.02	-0.360
287.38	-0.355
287.74	-0.188
288.10	-0.250
288.46	-0.384
288.82	-0.419
289.18	-0.420
289.54	-0.546
289.91	-0.281
290.27	-0.074
290.63	0.019
290.99	-0.147
291.35	-0.074
291.71	0.161
292.07	0.272
292.43	0.347
292.79	0.713
293.16	0.816
293.52	0.803
293.88	0.588
294.24	0.641
294.60	0.503
294.96	0.751
295.32	0.867
295.68	0.540
296.04	0.719
296.40	0.715
296.76	0.661
297.12	0.754
297.49	0.893
297.85	1.060
298.21	0.976
298.57	1.140
298.93	1.124
299.29	1.174
299.65	1.396
300.01	1.413
300.37	1.430
300.73	1.564
301.09	1.650
301.45	1.699
301.81	1.667
302.17	1.715
302.53	1.571
302.89	1.515
303.25	1.279
303.61	1.432
303.97	1.435
304.33	1.632
304.69	1.524
305.05	1.485
305.41	1.404
305.77	1.563
306.13	1.603
306.49	1.877
306.85	1.965
307.21	2.272
307.57	2.292
307.93	2.276
308.29	2.222
308.65	2.133
309.01	2.154
309.37	2.327
309.73	2.328
310.09	2.263
310.45	2.197
310.81	2.285
311.17	2.074
311.53	2.049
311.89	2.045
312.25	2.072
312.61	2.220
312.96	2.200
313.32	2.175
313.68	2.032
314.04	2.073
314.40	2.026
314.76	2.037
315.12	2.220
315.48	2.274
315.84	2.170
316.20	2.191
316.56	2.185
316.92	2.163
317.27	2.018
317.63	2.025
317.99	2.028
318.35	2.007
318.71	1.944
319.07	1.921
319.43	2.000
319.79	2.067
320.15	1.956
320.50	1.866
320.86	2.021
321.22	2.080
321.58	2.126
321.94	2.073
322.30	2.092
322.66	2.107
323.01	2.036
323.37	1.876
323.73	1.894
324.09	2.058
324.45	2.135
324.81	1.971
325.17	1.962
325.52	2.017
325.88	1.995
326.24	1.955
326.60	2.003
326.96	2.083
327.31	2.027
327.67	1.992
328.03	1.920
328.39	1.887
328.75	1.996
329.11	2.022
329.46	1.939
329.82	1.993
330.18	2.048
330.54	1.981
330.90	1.924
331.25	1.938
331.61	1.854
331.97	1.861
332.33	1.958
332.68	1.768
333.04	1.677
333.40	1.686
333.76	1.706
334.11	1.624
334.47	1.656
334.83	1.572
335.19	1.631
335.54	1.805
335.90	1.814
336.26	1.677
336.62	1.732
336.97	1.665
337.33	1.599
337.69	1.582
338.05	1.671
338.40	1.607
338.76	1.712
339.12	1.596
339.48	1.483
339.83	1.398
340.19	1.402
340.55	1.475
340.90	1.585
341.26	1.614
341.62	1.643
341.97	1.685
342.33	1.778
342.69	1.681
343.04	1.746
343.40	1.830
343.76	1.911
344.12	1.933
344.47	1.973
344.83	1.992
345.19	2.033
345.54	2.047
345.90	1.970
346.26	1.852
346.61	1.948
346.97	1.935
347.32	1.890
347.68	1.771
348.04	1.774
348.39	1.706
348.75	1.708
349.11	1.604
349.46	1.545
349.82	1.547
350.18	1.585
350.53	1.455
350.89	1.434
351.24	1.440
351.60	1.451
351.96	1.316
352.31	1.361
352.67	1.300
353.02	1.323
353.38	1.320
353.74	1.286
354.09	1.301
354.45	1.393
354.80	1.390
355.16	1.369
355.52	1.392
355.87	1.461
356.23	1.423
356.58	1.486
356.94	1.484
357.29	1.418
357.65	1.424
358.00	1.407
358.36	1.379
358.72	1.420
359.07	1.411
359.43	1.443
359.78	1.470
360.14	1.470
360.49	1.453
360.85	1.435
361.20	1.522
361.56	1.500
361.91	1.458
362.27	1.442
362.62	1.408
362.98	1.346
363.33	1.330
363.69	1.264
364.04	1.227
364.40	1.210
364.75	1.249
365.11	1.272
365.46	1.253
365.82	1.234
366.17	1.201
366.53	1.203
366.88	1.217
367.24	1.243
367.59	1.290
367.95	1.303
368.30	1.294
368.66	1.264
369.01	1.204
369.37	1.269
369.72	1.310
370.08	1.365
370.43	1.336
370.78	1.317
371.14	1.278
371.49	1.312
371.85	1.305
372.20	1.290
372.56	1.324
372.91	1.297
373.26	1.255
373.62	1.211
373.97	1.183
374.33	1.198
374.68	1.229
375.03	1.265
375.39	1.217
375.74	1.237
376.10	1.234
376.45	1.219
376.80	1.222
377.16	1.211
377.51	1.255
377.87	1.240
378.22	1.233
378.57	1.248
378.93	1.215
379.28	1.238
379.63	1.254
379.99	1.311
380.34	1.323
380.70	1.359
381.05	1.395
381.40	1.375
381.76	1.378
382.11	1.391
382.46	1.362
382.82	1.335
383.17	1.329
383.52	1.319
383.88	1.229
384.23	1.187
384.58	1.126
384.94	1.093
385.29	1.080
385.64	1.053
385.99	1.042
386.35	1.088
386.70	1.075
387.05	1.035
387.41	1.034
387.76	1.086
388.11	1.039
388.47	1.050
388.82	1.048
389.17	1.038
389.52	1.041
389.88	1.021
390.23	0.996
390.58	1.028
390.93	1.042
391.29	1.026
391.64	1.022
391.99	1.055
392.34	1.064
392.70	1.052
393.05	1.068
393.40	1.068
393.75	1.086
394.11	1.084
394.46	1.044
394.81	0.992
395.16	0.942
395.52	0.891
395.87	0.852
396.22	0.831
396.57	0.822
396.92	0.781
397.28	0.754
397.63	0.701
397.98	0.689
398.33	0.703
398.68	0.718
399.04	0.744
399.39	0.758
399.74	0.783
400.09	0.769
400.44	0.757
400.80	0.736
401.15	0.745
401.50	0.754
401.85	0.779
402.20	0.771
402.55	0.813
402.90	0.805
403.26	0.812
403.61	0.815
403.96	0.832
404.31	0.843
404.66	0.887
405.01	0.889
405.36	0.906
405.72	0.848
406.07	0.854
406.42	0.835
406.77	0.815
407.12	0.768
407.47	0.764
407.82	0.743
408.17	0.724
408.53	0.712
408.88	0.730
409.23	0.722
409.58	0.706
409.93	0.671
410.28	0.662
410.63	0.685
410.98	0.731
411.33	0.711
411.68	0.717
412.03	0.735
412.38	0.729
412.73	0.709
413.09	0.716
413.44	0.744
413.79	0.777
414.14	0.768
414.49	0.759
414.84	0.733
415.19	0.759
415.54	0.768
415.89	0.767
416.24	0.765
416.59	0.796
416.94	0.823
417.29	0.840
417.64	0.853
417.99	0.869
418.34	0.880
418.69	0.892
419.04	0.887
419.39	0.901
419.74	0.921
420.09	0.938
420.44	0.936
420.79	0.926
421.14	0.918
421.49	0.903
421.84	0.912
422.19	0.913
422.54	0.923
422.89	0.921
423.24	0.905
423.59	0.891
423.94	0.885
424.29	0.865
424.64	0.848
424.99	0.845
425.34	0.836
425.68	0.819
426.03	0.822
426.38	0.807
426.73	0.820
427.08	0.821
427.43	0.815
427.78	0.807
428.13	0.807
428.48	0.817
428.83	0.807
429.18	0.821
429.53	0.805
429.87	0.791
430.22	0.771
430.57	0.766
430.92	0.758
431.27	0.759
431.62	0.755
431.97	0.732
432.32	0.716
432.67	0.720
433.01	0.702
433.36	0.700
433.71	0.696
434.06	0.709
434.41	0.706
434.76	0.717
435.11	0.698
435.45	0.697
435.80	0.719
436.15	0.739
436.50	0.739
436.85	0.753
437.20	0.760
437.54	0.755
437.89	0.747
438.24	0.756
438.59	0.765
438.94	0.770
439.29	0.765
439.63	0.765
439.98	0.752
440.33	0.762
440.68	0.747
441.03	0.749
441.37	0.747
441.72	0.768
442.07	0.763
442.42	0.756
442.76	0.762
443.11	0.775
443.46	0.778
443.81	0.783
444.16	0.771
444.50	0.772
444.85	0.773
445.20	0.775
445.55	0.767
445.89	0.752
446.24	0.731
446.59	0.724
446.94	0.705
447.28	0.691
447.63	0.662
447.98	0.647
448.32	0.655
448.67	0.621
449.02	0.604
449.37	0.571
449.71	0.566
450.06	0.565
450.41	0.564
450.75	0.562
451.10	0.555
451.45	0.571
451.79	0.556
452.14	0.540
452.49	0.548
452.84	0.538
453.18	0.522
453.53	0.514
453.88	0.523
454.22	0.525
454.57	0.518
454.92	0.524
455.26	0.528
455.61	0.556
455.95	0.566
456.30	0.581
456.65	0.599
456.99	0.617
457.34	0.619
457.69	0.630
458.03	0.634
458.38	0.647
458.73	0.644
459.07	0.651
459.42	0.642
459.76	0.641
460.11	0.613
460.46	0.593
460.80	0.600
461.15	0.591
461.49	0.560
461.84	0.535
462.19	0.514
462.53	0.505
462.88	0.467
463.22	0.454
463.57	0.453
463.91	0.476
464.26	0.492
464.61	0.469
464.95	0.487
465.30	0.492
465.64	0.482
465.99	0.472
466.33	0.464
466.68	0.485
467.02	0.498
467.37	0.486
467.71	0.476
468.06	0.461
468.41	0.470
468.75	0.466
469.10	0.446
469.44	0.447
469.79	0.442
470.13	0.453
470.48	0.418
470.82	0.378
471.17	0.370
471.51	0.357
471.86	0.349
472.20	0.330
472.55	0.317
472.89	0.317
473.23	0.314
473.58	0.322
473.92	0.306
474.27	0.316
474.61	0.326
474.96	0.314
475.30	0.301
475.65	0.295
475.99	0.291
476.34	0.277
476.68	0.293
477.02	0.295
477.37	0.285
477.71	0.293
478.06	0.309
478.40	0.350
478.75	0.402
479.09	0.463
479.43	0.513
479.78	0.562
480.12	0.607
480.47	0.651
480.81	0.694
481.15	0.742
481.50	0.777
481.84	0.815
482.19	0.841
482.53	0.869
482.87	0.880
483.22	0.882
483.56	0.877
483.90	0.859
484.25	0.834
484.59	0.812
484.94	0.787
485.28	0.769
485.62	0.739
485.97	0.714
486.31	0.683
486.65	0.663
487.00	0.651
487.34	0.645
487.68	0.645
488.03	0.637
488.37	0.631
488.71	0.620
489.06	0.602
489.40	0.588
489.74	0.573
490.09	0.553
490.43	0.537
490.77	0.517
491.11	0.493
491.46	0.473
491.80	0.457
492.14	0.413
492.49	0.389
492.83	0.362
493.17	0.322
493.51	0.295
493.86	0.270
494.20	0.241
494.54	0.219
494.88	0.208
495.23	0.200
495.57	0.194
495.91	0.209
496.25	0.203
496.60	0.209
496.94	0.221
497.28	0.213
497.62	0.206
497.97	0.205
498.31	0.204
498.65	0.187
498.99	0.170
499.33	0.159
499.68	0.150
500.02	0.145
500.36	0.114
500.70	0.090
501.04	0.090
501.39	0.081
501.73	0.076
502.07	0.068
502.41	0.067
502.75	0.057
503.09	0.072
503.44	0.063
503.78	0.070
504.12	0.092
504.46	0.116
504.80	0.118
505.14	0.125
505.49	0.121
505.83	0.146
506.17	0.167
506.51	0.176
506.85	0.161
507.19	0.172
507.53	0.172
507.87	0.156
508.22	0.156
508.56	0.144
508.90	0.139
509.24	0.141
509.58	0.134
509.92	0.124
510.26	0.118
510.60	0.117
510.94	0.109
511.28	0.094
511.63	0.107
511.97	0.101
512.31	0.107
512.65	0.117
512.99	0.126
513.33	0.125
513.67	0.126
514.01	0.150
514.35	0.174
514.69	0.187
515.03	0.209
515.37	0.219
515.71	0.230
516.05	0.241
516.39	0.246
516.73	0.261
517.07	0.261
517.41	0.261
517.75	0.248
518.09	0.241
518.43	0.235
518.77	0.214
519.11	0.213
519.45	0.193
519.79	0.168
520.13	0.145
520.47	0.111
520.81	0.103
521.15	0.099
521.49	0.111
521.83	0.102
522.17	0.130
522.51	0.160
522.85	0.180
523.19	0.214
523.53	0.276
523.87	0.332
524.21	0.379
524.55	0.421
524.89	0.454
525.23	0.489
525.57	0.522
525.91	0.544
526.25	0.563
526.58	0.575
526.92	0.585
527.26	0.591
527.60	0.592
527.94	0.588
528.28	0.581
528.62	0.573
528.96	0.558
529.30	0.545
529.64	0.527
529.97	0.503
530.31	0.490
530.65	0.482
530.99	0.466
531.33	0.455
531.67	0.450
532.01	0.444
532.35	0.448
532.68	0.433
533.02	0.424
533.36	0.410
533.70	0.417
534.04	0.404
534.38	0.382
534.71	0.360
535.05	0.342
535.39	0.317
535.73	0.312
536.07	0.292
536.41	0.298
536.74	0.304
537.08	0.321
537.42	0.321
537.76	0.345
538.10	0.361
538.43	0.389
538.77	0.411
539.11	0.436
539.45	0.435
539.79	0.454
540.12	0.460
540.46	0.463
540.80	0.452
541.14	0.444
541.47	0.427
541.81	0.427
542.15	0.409
542.49	0.383
542.82	0.360
543.16	0.350
543.50	0.315
543.84	0.294
544.17	0.275
544.51	0.266
544.85	0.254
545.18	0.236
545.52	0.211
545.86	0.190
546.20	0.166
546.53	0.138
546.87	0.106
547.21	0.078
547.54	0.040
547.88	0.018
548.22	-0.015
548.55	-0.035
548.89	-0.044
549.23	-0.040
549.56	-0.058
549.90	-0.046
550.24	-0.049
550.57	-0.050
550.91	-0.035
551.25	-0.025
551.58	-0.034
551.92	-0.034
552.26	-0.037
552.59	-0.055
552.93	-0.085
553.27	-0.080
553.60	-0.111
553.94	-0.108
554.27	-0.120
554.61	-0.129
554.95	-0.121
555.28	-0.112
555.62	-0.117
555.95	-0.106
556.29	-0.101
556.63	-0.090
556.96	-0.080
557.30	-0.066
557.63	-0.083
557.97	-0.077
558.31	-0.064
558.64	-0.068
558.98	-0.074
559.31	-0.070
559.65	-0.066
559.98	-0.076
560.32	-0.074
560.65	-0.078
560.99	-0.073
561.33	-0.051
561.66	-0.032
562.00	-0.039
562.33	-0.033
562.67	-0.035
563.00	-0.006
563.34	-0.000
563.67	0.009
564.01	0.023
564.34	0.023
564.68	0.045
565.01	0.054
565.35	0.040
565.68	0.049
566.02	0.050
566.35	0.065
566.69	0.045
567.02	0.043
567.36	0.063
567.69	0.064
568.03	0.070
568.36	0.070
568.69	0.066
569.03	0.086
569.36	0.086
569.70	0.079
570.03	0.089
570.37	0.100
570.70	0.101
571.04	0.104
571.37	0.092
571.70	0.089
572.04	0.083
572.37	0.069
572.71	0.065
573.04	0.069
573.37	0.093
573.71	0.086
574.04	0.095
574.38	0.081
574.71	0.068
575.04	0.067
575.38	0.052
575.71	0.044
576.05	0.057
576.38	0.049
576.71	0.027
577.05	-0.009
577.38	-0.027
577.71	-0.048
578.05	-0.067
578.38	-0.086
578.71	-0.100
579.05	-0.112
579.38	-0.103
579.71	-0.134
580.05	-0.153
580.38	-0.153
580.71	-0.161
581.05	-0.184
581.38	-0.192
581.71	-0.188
582.05	-0.200
582.38	-0.198
582.71	-0.192
583.04	-0.248
583.38	-0.239
583.71	-0.233
584.04	-0.218
584.38	-0.215
584.71	-0.201
585.04	-0.190
585.37	-0.161
585.71	-0.150
586.04	-0.130
586.37	-0.111
586.70	-0.063
587.04	-0.073
587.37	-0.077
587.70	-0.078
588.03	-0.062
588.37	-0.074
588.70	-0.097
589.03	-0.108
589.36	-0.114
589.69	-0.156
590.03	-0.195
590.36	-0.221
590.69	-0.207
591.02	-0.213
591.35	-0.248
591.69	-0.262
592.02	-0.240
592.35	-0.248
592.68	-0.252
593.01	-0.239
593.35	-0.209
593.68	-0.179
594.01	-0.186
594.34	-0.199
594.67	-0.189
595.00	-0.188
595.34	-0.200
595.67	-0.233
596.00	-0.226
596.33	-0.246
596.66	-0.270
596.99	-0.288
597.32	-0.310
597.65	-0.307
597.99	-0.331
598.32	-0.361
598.65	-0.356
598.98	-0.375
599.31	-0.378
599.64	-0.371
599.97	-0.351
600.30	-0.360
600.63	-0.360
600.96	-0.365
601.30	-0.348
601.63	-0.331
601.96	-0.318
602.29	-0.317
602.62	-0.300
602.95	-0.286
603.28	-0.302
603.61	-0.323
603.94	-0.333
604.27	-0.346
604.60	-0.351
604.93	-0.389
605.26	-0.391
605.59	-0.417
605.92	-0.434
606.25	-0.473
606.58	-0.485
606.91	-0.491
607.24	-0.489
607.57	-0.490
607.90	-0.481
608.23	-0.508
608.56	-0.493
608.89	-0.531
609.22	-0.552
609.55	-0.590
609.88	-0.614
610.21	-0.663
610.54	-0.715
610.87	-0.754
611.20	-0.779
611.53	-0.852
611.86	-0.882
612.19	-0.945
612.52	-0.963
612.85	-0.974
613.18	-0.971
613.51	-0.986
613.84	-0.983
614.17	-0.974
614.49	-0.990
614.82	-1.009
615.15	-1.000
615.48	-1.001
615.81	-0.992
616.14	-0.999
616.47	-0.999
616.80	-1.009
617.13	-1.026
617.46	-1.036
617.78	-1.062
618.11	-1.071
618.44	-1.091
618.77	-1.120
619.10	-1.134
619.43	-1.153
619.76	-1.167
620.09	-1.221
620.41	-1.226
620.74	-1.191
621.07	-1.185
621.40	-1.198
621.73	-1.175
622.06	-1.164
622.38	-1.140
622.71	-1.142
623.04	-1.129
623.37	-1.086
623.70	-1.023
624.02	-1.022
624.35	-1.005
624.68	-0.989
625.01	-0.924
625.34	-0.918
625.66	-0.882
625.99	-0.867
626.32	-0.832
626.65	-0.829
626.98	-0.861
627.30	-0.900
627.63	-0.896
627.96	-0.926
628.29	-0.951
628.61	-0.989
628.94	-1.017
629.27	-1.067
629.60	-1.054
629.92	-1.083
630.25	-1.069
630.58	-1.086
630.91	-1.069
631.23	-1.084
631.56	-1.085
631.89	-1.060
632.21	-1.056
632.54	-1.079
632.87	-1.076
633.19	-1.127
633.52	-1.150
633.85	-1.168
634.18	-1.190
634.50	-1.232
634.83	-1.253
635.16	-1.273
635.48	-1.323
635.81	-1.378
636.14	-1.387
636.46	-1.411
636.79	-1.414
637.11	-1.400
637.44	-1.408
637.77	-1.433
638.09	-1.457
638.42	-1.494
638.75	-1.517
639.07	-1.541
639.40	-1.570
639.73	-1.558
640.05	-1.555
640.38	-1.578
640.70	-1.606
641.03	-1.638
641.36	-1.611
641.68	-1.613
642.01	-1.606
642.33	-1.570
642.66	-1.571
642.98	-1.540
643.31	-1.586
643.64	-1.575
643.96	-1.581
644.29	-1.598
644.61	-1.606
644.94	-1.590
645.26	-1.531
645.59	-1.492
645.91	-1.525
646.24	-1.502
646.56	-1.502
646.89	-1.494
647.22	-1.472
647.54	-1.467
647.87	-1.439
648.19	-1.440
648.52	-1.397
