OOIBase32 Version 2.0.0.6 Data File
++++++++++++++++++++++++++++++++++++
Date: 01-23-2012, 22:01:54
User: Valued Ocean Optics Customer
Spectrometer Serial Number: USB2E2917
Spectrometer Channel: Master
Integration Time (msec): 5
Spectra Averaged: 10
Boxcar Smoothing: 5
Correct for Electrical Dark: Enabled
Time Normalized: Disabled
Dual-beam Reference: Disabled
Reference Channel: Master
Temperature: Not acquired
Spectrometer Type: S2000
ADC Type: USB2000
Number of Pixels in File: 2048
Graph Title: 
>>>>>Begin Spectral Data<<<<<
180.30	0.000
180.67	0.000
181.03	141.239
181.40	19.999
181.77	3735.400
182.14	49.295
182.51	162.832
182.88	-9699.470
183.25	94.442
183.62	-48.762
183.99	43.927
184.36	-144.743
184.73	29.311
185.10	-101.951
185.46	-58.907
185.83	172.256
186.20	126.085
186.57	560.998
186.94	75.686
187.31	276.307
187.68	117.186
188.05	-82.343
188.42	-46.435
188.78	-35.065
189.15	-23.568
189.52	-1.278
189.89	-1.234
190.26	-23.709
190.63	-5.832
191.00	-15.468
191.37	5.103
191.73	12.281
192.10	23.052
192.47	16.146
192.84	12.893
193.21	20.611
193.58	19.836
193.94	23.177
194.31	12.018
194.68	11.561
195.05	11.002
195.42	-6.362
195.79	-10.858
196.15	-11.336
196.52	2.911
196.89	-4.868
197.26	-9.770
197.63	-20.862
198.00	-22.823
198.36	-13.975
198.73	-14.113
199.10	-7.713
199.47	-6.286
199.84	-15.625
200.20	-3.417
200.57	-46.757
200.94	-41.732
201.31	-49.246
201.68	-21.200
202.04	-22.551
202.41	-18.658
202.78	-39.242
203.15	-32.815
203.51	-69.146
203.88	-59.979
204.25	-85.190
204.62	-37.283
204.98	-29.742
205.35	-20.710
205.72	-27.655
206.09	-12.472
206.46	-3.485
206.82	17.250
207.19	5.958
207.56	19.273
207.92	22.272
208.29	21.618
208.66	16.431
209.03	19.770
209.39	8.162
209.76	7.099
210.13	6.302
210.50	-0.601
210.86	-8.927
211.23	12.493
211.60	13.847
211.96	20.735
212.33	17.293
212.70	21.868
213.07	16.758
213.43	25.127
213.80	20.513
214.17	4.751
214.53	1.498
214.90	7.690
215.27	-0.227
215.63	-1.408
216.00	-7.867
216.37	0.998
216.74	-15.241
217.10	-13.499
217.47	-26.179
217.84	-26.987
218.20	-3.805
218.57	4.750
218.94	3.791
219.30	2.742
219.67	1.875
220.04	-1.460
220.40	-0.787
220.77	-0.414
221.13	-9.295
221.50	-8.694
221.87	-7.856
222.23	-17.235
222.60	-13.158
222.97	-18.396
223.33	-23.676
223.70	-22.018
224.07	-11.178
224.43	-7.075
224.80	-1.292
225.16	1.714
225.53	3.753
225.90	1.312
226.26	1.114
226.63	-2.009
226.99	-0.912
227.36	0.637
227.73	1.429
228.09	-2.496
228.46	-4.673
228.82	-3.592
229.19	-3.169
229.56	-5.674
229.92	-4.949
230.29	-3.818
230.65	-2.244
231.02	-1.236
231.38	-3.575
231.75	-4.398
232.12	-1.013
232.48	1.717
232.85	0.814
233.21	2.398
233.58	3.061
233.94	5.600
234.31	4.696
234.68	4.582
235.04	2.719
235.41	3.371
235.77	3.901
236.14	2.799
236.50	0.216
236.87	0.176
237.23	-1.362
237.60	-0.394
237.96	-1.905
238.33	-0.322
238.69	0.177
239.06	0.802
239.42	1.618
239.79	1.252
240.15	1.860
240.52	2.131
240.88	2.003
241.25	2.237
241.61	2.467
241.98	2.967
242.34	2.401
242.71	2.562
243.07	2.938
243.44	3.001
243.80	3.046
244.17	2.952
244.53	3.188
244.90	3.066
245.26	3.048
245.63	2.962
245.99	2.981
246.36	3.237
246.72	2.694
247.09	2.197
247.45	1.790
247.81	1.699
248.18	0.992
248.54	0.629
248.91	0.442
249.27	0.609
249.64	0.351
250.00	0.381
250.36	0.159
250.73	1.109
251.09	1.857
251.46	2.137
251.82	2.310
252.19	3.113
252.55	3.355
252.91	3.777
253.28	2.826
253.64	2.675
254.01	2.422
254.37	2.232
254.73	1.813
255.10	1.796
255.46	1.925
255.83	1.658
256.19	1.641
256.55	1.413
256.92	1.563
257.28	1.900
257.65	2.217
258.01	2.311
258.37	2.277
258.74	2.389
259.10	2.377
259.46	2.472
259.83	2.607
260.19	2.644
260.55	2.915
260.92	2.708
261.28	2.626
261.64	2.386
262.01	2.268
262.37	2.188
262.73	1.884
263.10	1.759
263.46	1.968
263.82	2.093
264.19	2.172
264.55	2.082
264.91	2.117
265.28	2.248
265.64	2.055
266.00	1.797
266.37	1.890
266.73	1.957
267.09	1.852
267.46	1.767
267.82	1.459
268.18	1.406
268.54	1.312
268.91	1.740
269.27	1.710
269.63	1.802
270.00	1.869
270.36	1.746
270.72	1.758
271.08	1.527
271.45	1.450
271.81	1.906
272.17	2.005
272.53	2.109
272.90	1.766
273.26	1.672
273.62	1.669
273.98	1.723
274.35	1.731
274.71	1.773
275.07	2.049
275.43	2.181
275.80	1.919
276.16	2.019
276.52	1.821
276.88	1.747
277.25	1.808
277.61	1.968
277.97	2.076
278.33	1.851
278.69	1.892
279.06	2.262
279.42	1.913
279.78	1.762
280.14	1.643
280.50	1.837
280.87	2.018
281.23	2.201
281.59	2.062
281.95	2.031
282.31	2.265
282.68	2.282
283.04	1.911
283.40	2.074
283.76	2.159
284.12	2.041
284.48	1.874
284.85	1.645
285.21	1.580
285.57	1.747
285.93	1.717
286.29	1.746
286.65	1.651
287.02	1.648
287.38	1.690
287.74	1.855
288.10	1.864
288.46	1.955
288.82	1.947
289.18	1.823
289.54	1.811
289.91	1.888
290.27	1.891
290.63	2.046
290.99	2.091
291.35	2.251
291.71	2.136
292.07	2.181
292.43	2.264
292.79	2.566
293.16	2.539
293.52	2.443
293.88	2.528
294.24	2.597
294.60	2.346
294.96	2.502
295.32	2.461
295.68	2.370
296.04	2.408
296.40	2.364
296.76	2.304
297.12	2.398
297.49	2.548
297.85	2.555
298.21	2.648
298.57	2.794
298.93	2.824
299.29	2.783
299.65	2.750
300.01	2.770
300.37	2.817
300.73	3.089
301.09	3.112
301.45	3.173
301.81	3.132
302.17	3.100
302.53	3.227
302.89	3.083
303.25	3.039
303.61	3.346
303.97	3.437
304.33	3.431
304.69	3.154
305.05	3.246
305.41	3.008
305.77	3.138
306.13	3.062
306.49	3.167
306.85	3.224
307.21	3.298
307.57	3.246
307.93	3.194
308.29	3.268
308.65	3.252
309.01	3.174
309.37	3.377
309.73	3.304
310.09	3.321
310.45	3.247
310.81	3.296
311.17	3.206
311.53	3.161
311.89	3.241
312.25	3.072
312.61	3.146
312.96	3.262
313.32	3.242
313.68	3.156
314.04	3.134
314.40	3.153
314.76	3.127
315.12	3.270
315.48	3.370
315.84	3.279
316.20	3.430
316.56	3.540
316.92	3.494
317.27	3.371
317.63	3.325
317.99	3.356
318.35	3.288
318.71	3.254
319.07	3.128
319.43	3.122
319.79	3.038
320.15	3.031
320.50	2.741
320.86	2.754
321.22	2.907
321.58	3.083
321.94	2.969
322.30	3.080
322.66	3.184
323.01	3.285
323.37	3.210
323.73	3.355
324.09	3.470
324.45	3.681
324.81	3.657
325.17	3.613
325.52	3.582
325.88	3.680
326.24	3.625
326.60	3.702
326.96	3.785
327.31	3.798
327.67	3.822
328.03	3.781
328.39	3.802
328.75	3.967
329.11	4.051
329.46	4.070
329.82	4.187
330.18	4.303
330.54	4.316
330.90	4.279
331.25	4.389
331.61	4.342
331.97	4.271
332.33	4.328
332.68	4.174
333.04	4.044
333.40	4.151
333.76	4.113
334.11	3.953
334.47	3.831
334.83	3.792
335.19	3.778
335.54	3.900
335.90	4.016
336.26	3.934
336.62	4.013
336.97	4.027
337.33	3.900
337.69	3.909
338.05	3.988
338.40	4.030
338.76	4.096
339.12	4.105
339.48	4.100
339.83	4.039
340.19	4.045
340.55	3.849
340.90	3.851
341.26	3.852
341.62	3.829
341.97	3.882
342.33	3.944
342.69	3.970
343.04	3.949
343.40	3.903
343.76	3.960
344.12	4.048
344.47	4.246
344.83	4.213
345.19	4.211
345.54	4.201
345.90	4.217
346.26	4.148
346.61	4.163
346.97	4.091
347.32	4.070
347.68	3.983
348.04	3.950
348.39	3.906
348.75	4.080
349.11	4.073
349.46	4.082
349.82	4.060
350.18	4.100
350.53	3.958
350.89	4.045
351.24	4.049
351.60	4.102
351.96	4.112
352.31	4.173
352.67	4.045
353.02	4.055
353.38	3.971
353.74	3.895
354.09	3.905
354.45	3.981
354.80	3.937
355.16	3.894
355.52	3.880
355.87	3.826
356.23	3.800
356.58	3.832
356.94	3.825
357.29	3.881
357.65	3.908
358.00	3.884
358.36	3.838
358.72	3.849
359.07	3.908
359.43	3.954
359.78	4.002
360.14	3.957
360.49	3.959
360.85	3.966
361.20	4.003
361.56	4.049
361.91	4.031
362.27	4.068
362.62	4.016
362.98	3.955
363.33	3.915
363.69	3.836
364.04	3.812
364.40	3.786
364.75	3.752
365.11	3.818
365.46	3.801
365.82	3.831
366.17	3.786
366.53	3.836
366.88	3.844
367.24	3.909
367.59	3.983
367.95	4.087
368.30	4.091
368.66	4.181
369.01	4.108
369.37	4.132
369.72	4.124
370.08	4.190
370.43	4.182
370.78	4.167
371.14	4.105
371.49	4.096
371.85	4.084
372.20	4.131
372.56	4.139
372.91	4.162
373.26	4.125
373.62	4.138
373.97	4.157
374.33	4.215
374.68	4.285
375.03	4.372
375.39	4.320
375.74	4.284
376.10	4.294
376.45	4.296
376.80	4.323
377.16	4.408
377.51	4.453
377.87	4.419
378.22	4.439
378.57	4.475
378.93	4.439
379.28	4.578
379.63	4.641
379.99	4.691
380.34	4.730
380.70	4.788
381.05	4.807
381.40	4.787
381.76	4.823
382.11	4.838
382.46	4.834
382.82	4.876
383.17	4.895
383.52	4.924
383.88	4.881
384.23	4.919
384.58	4.903
384.94	4.933
385.29	4.981
385.64	5.050
385.99	5.124
386.35	5.208
386.70	5.225
387.05	5.201
387.41	5.215
387.76	5.270
388.11	5.251
388.47	5.314
388.82	5.320
389.17	5.332
389.52	5.343
389.88	5.337
390.23	5.351
390.58	5.381
390.93	5.425
391.29	5.486
391.64	5.542
391.99	5.585
392.34	5.594
392.70	5.644
393.05	5.695
393.40	5.708
393.75	5.740
394.11	5.750
394.46	5.780
394.81	5.770
395.16	5.738
395.52	5.764
395.87	5.758
396.22	5.768
396.57	5.771
396.92	5.776
397.28	5.816
397.63	5.834
397.98	5.860
398.33	5.877
398.68	5.960
399.04	6.022
399.39	6.028
399.74	6.070
400.09	6.058
400.44	6.066
400.80	6.087
401.15	6.145
401.50	6.167
401.85	6.204
402.20	6.234
402.55	6.275
402.90	6.259
403.26	6.320
403.61	6.369
403.96	6.447
404.31	6.501
404.66	6.578
405.01	6.580
405.36	6.631
405.72	6.646
406.07	6.694
406.42	6.680
406.77	6.743
407.12	6.720
407.47	6.771
407.82	6.792
408.17	6.788
408.53	6.799
408.88	6.834
409.23	6.855
409.58	6.857
409.93	6.887
410.28	6.938
410.63	6.991
410.98	7.040
411.33	7.044
411.68	7.058
412.03	7.114
412.38	7.161
412.73	7.200
413.09	7.257
413.44	7.314
413.79	7.362
414.14	7.381
414.49	7.395
414.84	7.422
415.19	7.440
415.54	7.483
415.89	7.502
416.24	7.506
416.59	7.509
416.94	7.519
417.29	7.537
417.64	7.548
417.99	7.577
418.34	7.596
418.69	7.612
419.04	7.631
419.39	7.645
419.74	7.667
420.09	7.689
420.44	7.713
420.79	7.719
421.14	7.717
421.49	7.715
421.84	7.739
422.19	7.747
422.54	7.776
422.89	7.798
423.24	7.816
423.59	7.827
423.94	7.843
424.29	7.869
424.64	7.887
424.99	7.944
425.34	7.998
425.68	8.014
426.03	8.067
426.38	8.076
426.73	8.118
427.08	8.144
427.43	8.195
427.78	8.235
428.13	8.241
428.48	8.289
428.83	8.299
429.18	8.308
429.53	8.311
429.87	8.315
430.22	8.322
430.57	8.347
430.92	8.354
431.27	8.378
431.62	8.376
431.97	8.385
432.32	8.380
432.67	8.391
433.01	8.401
433.36	8.436
433.71	8.466
434.06	8.506
434.41	8.535
434.76	8.582
435.11	8.566
435.45	8.574
435.80	8.609
436.15	8.644
436.50	8.666
436.85	8.686
437.20	8.684
437.54	8.677
437.89	8.664
438.24	8.643
438.59	8.632
438.94	8.660
439.29	8.665
439.63	8.678
439.98	8.670
440.33	8.674
440.68	8.663
441.03	8.673
441.37	8.677
441.72	8.703
442.07	8.716
442.42	8.729
442.76	8.723
443.11	8.732
443.46	8.724
443.81	8.725
444.16	8.721
444.50	8.721
444.85	8.717
445.20	8.725
445.55	8.712
445.89	8.696
446.24	8.673
446.59	8.679
446.94	8.674
447.28	8.678
447.63	8.684
447.98	8.698
448.32	8.724
448.67	8.729
449.02	8.733
449.37	8.766
449.71	8.774
450.06	8.790
450.41	8.793
450.75	8.799
451.10	8.800
451.45	8.810
451.79	8.791
452.14	8.777
452.49	8.799
452.84	8.795
453.18	8.769
453.53	8.791
453.88	8.813
454.22	8.816
454.57	8.838
454.92	8.864
455.26	8.887
455.61	8.905
455.95	8.941
456.30	8.941
456.65	8.971
456.99	9.005
457.34	9.024
457.69	9.043
458.03	9.048
458.38	9.074
458.73	9.089
459.07	9.101
459.42	9.126
459.76	9.149
460.11	9.174
460.46	9.186
460.80	9.213
461.15	9.231
461.49	9.251
461.84	9.303
462.19	9.326
462.53	9.353
462.88	9.392
463.22	9.425
463.57	9.456
463.91	9.497
464.26	9.543
464.61	9.574
464.95	9.619
465.30	9.641
465.64	9.683
465.99	9.719
466.33	9.742
466.68	9.768
467.02	9.816
467.37	9.841
467.71	9.865
468.06	9.888
468.41	9.900
468.75	9.933
469.10	9.962
469.44	9.972
469.79	9.984
470.13	10.012
470.48	10.011
470.82	10.022
471.17	10.036
471.51	10.051
471.86	10.070
472.20	10.090
472.55	10.116
472.89	10.142
473.23	10.159
473.58	10.160
473.92	10.159
474.27	10.171
474.61	10.171
474.96	10.169
475.30	10.157
475.65	10.155
475.99	10.161
476.34	10.133
476.68	10.122
477.02	10.120
477.37	10.127
477.71	10.141
478.06	10.190
478.40	10.229
478.75	10.296
479.09	10.399
479.43	10.481
479.78	10.609
480.12	10.757
480.47	10.919
480.81	11.085
481.15	11.260
481.50	11.440
481.84	11.633
482.19	11.855
482.53	12.040
482.87	12.127
483.22	12.126
483.56	12.018
483.90	11.840
484.25	11.621
484.59	11.407
484.94	11.248
485.28	11.100
485.62	10.908
485.97	10.693
486.31	10.503
486.65	10.402
487.00	10.404
487.34	10.491
487.68	10.620
488.03	10.779
488.37	10.921
488.71	10.983
489.06	11.004
489.40	11.032
489.74	11.051
490.09	11.075
490.43	11.097
490.77	11.122
491.11	11.141
491.46	11.180
491.80	11.224
492.14	11.245
492.49	11.287
492.83	11.341
493.17	11.395
493.51	11.456
493.86	11.518
494.20	11.589
494.54	11.649
494.88	11.725
495.23	11.801
495.57	11.879
495.91	11.976
496.25	12.051
496.60	12.105
496.94	12.175
497.28	12.264
497.62	12.365
497.97	12.449
498.31	12.537
498.65	12.623
498.99	12.731
499.33	12.824
499.68	12.925
500.02	13.019
500.36	13.129
500.70	13.208
501.04	13.303
501.39	13.366
501.73	13.467
502.07	13.566
502.41	13.679
502.75	13.766
503.09	13.865
503.44	13.981
503.78	14.096
504.12	14.198
504.46	14.334
504.80	14.434
505.14	14.549
505.49	14.650
505.83	14.778
506.17	14.878
506.51	14.973
506.85	15.061
507.19	15.150
507.53	15.236
507.87	15.354
508.22	15.452
508.56	15.534
508.90	15.639
509.24	15.763
509.58	15.836
509.92	15.924
510.26	16.019
510.60	16.133
510.94	16.243
511.28	16.350
511.63	16.459
511.97	16.560
512.31	16.676
512.65	16.795
512.99	16.882
513.33	17.007
513.67	17.134
514.01	17.264
514.35	17.370
514.69	17.465
515.03	17.548
515.37	17.605
515.71	17.688
516.05	17.762
516.39	17.846
516.73	17.910
517.07	17.978
517.41	18.009
517.75	18.043
518.09	18.099
518.43	18.136
518.77	18.200
519.11	18.277
519.45	18.350
519.79	18.424
520.13	18.477
520.47	18.573
520.81	18.666
521.15	18.775
521.49	18.873
521.83	18.948
522.17	19.059
522.51	19.158
522.85	19.260
523.19	19.385
523.53	19.561
523.87	19.741
524.21	19.914
524.55	20.067
524.89	20.212
525.23	20.339
525.57	20.454
525.91	20.556
526.25	20.659
526.58	20.755
526.92	20.814
527.26	20.837
527.60	20.835
527.94	20.811
528.28	20.796
528.62	20.774
528.96	20.759
529.30	20.742
529.64	20.730
529.97	20.706
530.31	20.661
530.65	20.637
530.99	20.640
531.33	20.663
531.67	20.719
532.01	20.744
532.35	20.784
532.68	20.781
533.02	20.794
533.36	20.800
533.70	20.820
534.04	20.849
534.38	20.886
534.71	20.913
535.05	20.942
535.39	20.939
535.73	20.968
536.07	20.997
536.41	21.099
536.74	21.188
537.08	21.267
537.42	21.336
537.76	21.403
538.10	21.477
538.43	21.544
538.77	21.616
539.11	21.697
539.45	21.765
539.79	21.826
540.12	21.839
540.46	21.837
540.80	21.840
541.14	21.835
541.47	21.843
541.81	21.837
542.15	21.837
542.49	21.814
542.82	21.820
543.16	21.809
543.50	21.814
543.84	21.842
544.17	21.870
544.51	21.908
544.85	21.956
545.18	21.991
545.52	22.024
545.86	22.036
546.20	22.105
546.53	22.098
546.87	22.141
547.21	22.152
547.54	22.177
547.88	22.252
548.22	22.287
548.55	22.322
548.89	22.379
549.23	22.439
549.56	22.498
549.90	22.526
550.24	22.569
550.57	22.594
550.91	22.610
551.25	22.652
551.58	22.655
551.92	22.685
552.26	22.737
552.59	22.759
552.93	22.787
553.27	22.837
553.60	22.878
553.94	22.929
554.27	22.978
554.61	23.060
554.95	23.122
555.28	23.172
555.62	23.210
555.95	23.239
556.29	23.262
556.63	23.292
556.96	23.310
557.30	23.338
557.63	23.364
557.97	23.389
558.31	23.401
558.64	23.407
558.98	23.441
559.31	23.470
559.65	23.496
559.98	23.540
560.32	23.574
560.65	23.604
560.99	23.622
561.33	23.662
561.66	23.700
562.00	23.732
562.33	23.768
562.67	23.778
563.00	23.830
563.34	23.830
563.67	23.840
564.01	23.839
564.34	23.857
564.68	23.881
565.01	23.871
565.35	23.866
565.68	23.885
566.02	23.890
566.35	23.941
566.69	23.956
567.02	24.013
567.36	24.045
567.69	24.099
568.03	24.145
568.36	24.187
568.69	24.216
569.03	24.266
569.36	24.272
569.70	24.286
570.03	24.266
570.37	24.249
570.70	24.247
571.04	24.246
571.37	24.231
571.70	24.253
572.04	24.267
572.37	24.292
572.71	24.289
573.04	24.312
573.37	24.355
573.71	24.416
574.04	24.463
574.38	24.494
574.71	24.549
575.04	24.615
575.38	24.621
575.71	24.657
576.05	24.729
576.38	24.789
576.71	24.834
577.05	24.886
577.38	24.910
577.71	25.004
578.05	25.050
578.38	25.114
578.71	25.140
579.05	25.192
579.38	25.213
579.71	25.225
580.05	25.269
580.38	25.321
580.71	25.332
581.05	25.366
581.38	25.357
581.71	25.381
582.05	25.377
582.38	25.425
582.71	25.446
583.04	25.463
583.38	25.516
583.71	25.527
584.04	25.570
584.38	25.637
584.71	25.661
585.04	25.675
585.37	25.723
585.71	25.759
586.04	25.794
586.37	25.798
586.70	25.848
587.04	25.828
587.37	25.833
587.70	25.783
588.03	25.798
588.37	25.800
588.70	25.792
589.03	25.784
589.36	25.775
589.69	25.739
590.03	25.733
590.36	25.693
590.69	25.742
591.02	25.751
591.35	25.806
591.69	25.774
592.02	25.773
592.35	25.771
592.68	25.750
593.01	25.745
593.35	25.788
593.68	25.823
594.01	25.824
594.34	25.812
594.67	25.789
595.00	25.754
595.34	25.769
595.67	25.788
596.00	25.810
596.33	25.821
596.66	25.848
596.99	25.837
597.32	25.861
597.65	25.894
597.99	25.898
598.32	25.919
598.65	25.989
598.98	25.972
599.31	26.007
599.64	26.057
599.97	26.089
600.30	26.089
600.63	26.089
600.96	26.085
601.30	26.077
601.63	26.052
601.96	26.054
602.29	26.045
602.62	26.057
602.95	26.044
603.28	25.972
603.61	25.983
603.94	25.986
604.27	25.976
604.60	25.955
604.93	25.976
605.26	26.020
605.59	26.044
605.92	26.034
606.25	26.038
606.58	26.063
606.91	26.104
607.24	26.091
607.57	26.082
607.90	26.091
608.23	26.077
608.56	26.072
608.89	26.047
609.22	26.019
609.55	26.027
609.88	26.041
610.21	26.029
610.54	26.083
610.87	26.113
611.20	26.148
611.53	26.220
611.86	26.237
612.19	26.303
612.52	26.339
612.85	26.422
613.18	26.452
613.51	26.428
613.84	26.439
614.17	26.447
614.49	26.476
614.82	26.498
615.15	26.486
615.48	26.557
615.81	26.539
616.14	26.537
616.47	26.533
616.80	26.564
617.13	26.595
617.46	26.613
617.78	26.584
618.11	26.552
618.44	26.539
618.77	26.507
619.10	26.471
619.43	26.500
619.76	26.511
620.09	26.527
620.41	26.467
620.74	26.468
621.07	26.474
621.40	26.468
621.73	26.458
622.06	26.454
622.38	26.447
622.71	26.413
623.04	26.329
623.37	26.308
623.70	26.252
624.02	26.223
624.35	26.223
624.68	26.181
625.01	26.182
625.34	26.181
625.66	26.157
625.99	26.139
626.32	26.157
626.65	26.182
626.98	26.199
627.30	26.265
627.63	26.292
627.96	26.314
628.29	26.326
628.61	26.324
628.94	26.352
629.27	26.351
629.60	26.393
629.92	26.414
630.25	26.395
630.58	26.330
630.91	26.275
631.23	26.307
631.56	26.294
631.89	26.322
632.21	26.299
632.54	26.216
632.87	26.236
633.19	26.196
633.52	26.183
633.85	26.204
634.18	26.237
634.50	26.194
634.83	26.182
635.16	26.186
635.48	26.193
635.81	26.204
636.14	26.242
636.46	26.225
636.79	26.215
637.11	26.211
637.44	26.237
637.77	26.218
638.09	26.205
638.42	26.154
638.75	26.114
639.07	26.076
639.40	26.057
639.73	26.087
640.05	26.130
640.38	26.118
640.70	26.104
641.03	26.083
641.36	26.099
641.68	26.099
642.01	26.150
642.33	26.153
642.66	26.138
642.98	26.157
643.31	26.111
643.64	26.084
643.96	26.108
644.29	26.082
644.61	26.076
644.94	26.055
645.26	26.041
645.59	25.998
645.91	26.004
646.24	26.025
646.56	26.000
646.89	26.007
