OOIBase32 Version 2.0.0.6 Data File
++++++++++++++++++++++++++++++++++++
Date: 01-20-2012, 22:49:09
User: Valued Ocean Optics Customer
Spectrometer Serial Number: USB2E2917
Spectrometer Channel: Master
Integration Time (msec): 3
Spectra Averaged: 10
Boxcar Smoothing: 5
Correct for Electrical Dark: Enabled
Time Normalized: Disabled
Dual-beam Reference: Disabled
Reference Channel: Master
Temperature: Not acquired
Spectrometer Type: S2000
ADC Type: USB2000
Number of Pixels in File: 2048
Graph Title: 
>>>>>Begin Spectral Data<<<<<
180.30	0.000
180.67	0.000
181.03	386.503
181.40	37.829
181.77	90.002
182.14	61.285
182.51	1479.107
182.88	237.217
183.25	218.066
183.62	110.742
183.99	187.948
184.36	-1.753
184.73	256.337
185.10	-193.545
185.46	148.492
185.83	29.234
186.20	59.487
186.57	-273.379
186.94	-1993.641
187.31	-106.046
187.68	149.080
188.05	-8.584
188.42	-90.440
188.78	-341.100
189.15	-174.791
189.52	-197.107
189.89	-54.765
190.26	-68.628
190.63	-79.196
191.00	-84.678
191.37	-99.114
191.73	-101.291
192.10	-158.722
192.47	-221.075
192.84	38.095
193.21	-2598.529
193.58	208.662
193.94	132.228
194.31	141.231
194.68	88.657
195.05	211.785
195.42	563.069
195.79	202.356
196.15	114.667
196.52	180.537
196.89	346.013
197.26	3162.478
197.63	-247.161
198.00	-130.896
198.36	-284.449
198.73	-303.189
199.10	-214.655
199.47	-230.484
199.84	-200.537
200.20	-80.343
200.57	-69.247
200.94	-30.913
201.31	-34.638
201.68	-35.404
202.04	-16.994
202.41	-0.646
202.78	13.774
203.15	15.855
203.51	-54.653
203.88	-62.391
204.25	-137.204
204.62	-175.761
204.98	-125.448
205.35	-64.041
205.72	-30.895
206.09	-153.374
206.46	-75.905
206.82	-81.091
207.19	-54.086
207.56	-21.398
207.92	-28.265
208.29	-11.764
208.66	-13.694
209.03	0.900
209.39	-23.145
209.76	-37.874
210.13	-26.180
210.50	-32.026
210.86	-7.852
211.23	-1.224
211.60	-6.576
211.96	13.634
212.33	9.024
212.70	13.963
213.07	-26.717
213.43	-4.709
213.80	-21.499
214.17	-16.085
214.53	-15.476
214.90	-37.226
215.27	-58.022
215.63	-56.530
216.00	-55.214
216.37	-44.687
216.74	-52.467
217.10	-20.346
217.47	-8.592
217.84	7.754
218.20	6.344
218.57	13.709
218.94	25.443
219.30	41.549
219.67	43.473
220.04	43.963
220.40	47.240
220.77	42.383
221.13	35.185
221.50	32.215
221.87	30.016
222.23	30.007
222.60	24.346
222.97	23.458
223.33	16.638
223.70	17.308
224.07	15.615
224.43	9.367
224.80	9.493
225.16	9.870
225.53	5.972
225.90	5.833
226.26	5.064
226.63	6.196
226.99	5.703
227.36	4.264
227.73	3.917
228.09	4.318
228.46	4.877
228.82	5.069
229.19	3.925
229.56	4.892
229.92	3.457
230.29	3.466
230.65	2.037
231.02	1.972
231.38	2.470
231.75	2.437
232.12	2.265
232.48	2.245
232.85	2.464
233.21	2.698
233.58	3.549
233.94	4.489
234.31	4.160
234.68	6.059
235.04	5.313
235.41	6.734
235.77	5.843
236.14	5.457
236.50	5.751
236.87	5.704
237.23	5.827
237.60	4.773
237.96	4.614
238.33	4.118
238.69	3.332
239.06	3.386
239.42	3.454
239.79	3.384
240.15	3.393
240.52	3.557
240.88	3.403
241.25	3.442
241.61	3.842
241.98	4.081
242.34	4.065
242.71	3.990
243.07	3.920
243.44	3.494
243.80	3.401
244.17	3.207
244.53	2.785
244.90	2.781
245.26	2.779
245.63	2.573
245.99	2.602
246.36	2.519
246.72	2.320
247.09	2.368
247.45	2.472
247.81	2.714
248.18	2.895
248.54	3.082
248.91	3.281
249.27	3.236
249.64	3.191
250.00	3.245
250.36	3.804
250.73	4.217
251.09	4.139
251.46	4.496
251.82	4.200
252.19	4.041
252.55	4.033
252.91	3.504
253.28	3.504
253.64	4.053
254.01	3.659
254.37	3.345
254.73	2.976
255.10	2.861
255.46	2.574
255.83	2.750
256.19	2.905
256.55	2.925
256.92	2.866
257.28	2.833
257.65	2.821
258.01	2.980
258.37	2.916
258.74	2.866
259.10	2.868
259.46	3.014
259.83	3.049
260.19	3.125
260.55	3.035
260.92	3.027
261.28	3.053
261.64	2.865
262.01	2.894
262.37	3.032
262.73	3.127
263.10	3.063
263.46	2.740
263.82	2.699
264.19	2.680
264.55	3.101
264.91	3.456
265.28	3.536
265.64	3.642
266.00	3.661
266.37	3.571
266.73	3.719
267.09	3.961
267.46	3.910
267.82	3.697
268.18	3.559
268.54	3.182
268.91	3.060
269.27	2.896
269.63	2.968
270.00	2.676
270.36	2.721
270.72	2.688
271.08	2.461
271.45	2.275
271.81	1.827
272.17	1.841
272.53	1.980
272.90	1.831
273.26	1.814
273.62	1.565
273.98	1.432
274.35	1.319
274.71	1.295
275.07	1.410
275.43	1.496
275.80	2.313
276.16	2.476
276.52	2.641
276.88	2.700
277.25	2.549
277.61	2.915
277.97	3.219
278.33	3.306
278.69	3.126
279.06	3.080
279.42	3.282
279.78	3.022
280.14	2.788
280.50	2.869
280.87	2.875
281.23	3.221
281.59	3.006
281.95	2.972
282.31	2.832
282.68	2.950
283.04	3.284
283.40	3.247
283.76	3.393
284.12	3.481
284.48	3.341
284.85	3.478
285.21	3.356
285.57	3.308
285.93	3.311
286.29	3.445
286.65	3.481
287.02	3.175
287.38	3.217
287.74	3.140
288.10	3.197
288.46	3.110
288.82	2.945
289.18	2.904
289.54	2.993
289.91	2.893
290.27	2.828
290.63	2.676
290.99	2.696
291.35	2.729
291.71	2.772
292.07	2.854
292.43	2.760
292.79	2.854
293.16	2.781
293.52	2.863
293.88	2.901
294.24	2.889
294.60	2.995
294.96	3.055
295.32	3.190
295.68	3.209
296.04	3.052
296.40	3.273
296.76	3.288
297.12	3.367
297.49	3.360
297.85	3.488
298.21	3.492
298.57	3.635
298.93	3.696
299.29	3.674
299.65	3.729
300.01	3.768
300.37	3.762
300.73	3.992
301.09	3.951
301.45	3.998
301.81	4.249
302.17	4.306
302.53	4.302
302.89	4.525
303.25	4.471
303.61	4.569
303.97	4.710
304.33	4.671
304.69	4.517
305.05	4.869
305.41	4.941
305.77	4.580
306.13	4.753
306.49	4.650
306.85	4.614
307.21	4.629
307.57	4.683
307.93	4.671
308.29	4.789
308.65	4.842
309.01	4.560
309.37	4.505
309.73	4.577
310.09	4.552
310.45	4.811
310.81	4.690
311.17	4.735
311.53	4.648
311.89	4.782
312.25	4.837
312.61	4.875
312.96	5.130
313.32	5.219
313.68	5.383
314.04	5.392
314.40	5.319
314.76	5.359
315.12	5.503
315.48	5.676
315.84	5.576
316.20	5.552
316.56	5.566
316.92	5.626
317.27	5.665
317.63	5.629
317.99	5.601
318.35	5.569
318.71	5.687
319.07	5.621
319.43	5.490
319.79	5.672
320.15	5.769
320.50	5.801
320.86	5.803
321.22	5.792
321.58	5.872
321.94	6.112
322.30	6.212
322.66	6.259
323.01	6.205
323.37	6.228
323.73	6.142
324.09	6.119
324.45	6.052
324.81	6.095
325.17	6.188
325.52	6.255
325.88	6.281
326.24	6.135
326.60	6.172
326.96	6.228
327.31	6.368
327.67	6.402
328.03	6.407
328.39	6.576
328.75	6.591
329.11	6.620
329.46	6.528
329.82	6.400
330.18	6.597
330.54	6.540
330.90	6.576
331.25	6.611
331.61	6.800
331.97	6.887
332.33	6.953
332.68	6.967
333.04	6.955
333.40	7.049
333.76	7.107
334.11	7.084
334.47	7.176
334.83	7.217
335.19	7.195
335.54	7.133
335.90	7.189
336.26	7.246
336.62	7.324
336.97	7.343
337.33	7.375
337.69	7.456
338.05	7.486
338.40	7.385
338.76	7.454
339.12	7.428
339.48	7.394
339.83	7.345
340.19	7.220
340.55	7.061
340.90	7.162
341.26	7.209
341.62	7.069
341.97	7.052
342.33	7.132
342.69	7.035
343.04	7.043
343.40	7.061
343.76	7.004
344.12	6.991
344.47	7.076
344.83	6.953
345.19	6.848
345.54	6.958
345.90	7.007
346.26	7.061
346.61	7.171
346.97	7.179
347.32	7.156
347.68	7.172
348.04	7.225
348.39	7.049
348.75	7.076
349.11	7.038
349.46	6.970
349.82	6.821
350.18	6.660
350.53	6.498
350.89	6.497
351.24	6.463
351.60	6.531
351.96	6.457
352.31	6.589
352.67	6.554
353.02	6.590
353.38	6.630
353.74	6.690
354.09	6.775
354.45	6.819
354.80	6.845
355.16	6.881
355.52	6.806
355.87	6.815
356.23	6.734
356.58	6.742
356.94	6.713
357.29	6.693
357.65	6.699
358.00	6.713
358.36	6.642
358.72	6.593
359.07	6.508
359.43	6.489
359.78	6.509
360.14	6.588
360.49	6.579
360.85	6.612
361.20	6.671
361.56	6.602
361.91	6.586
362.27	6.639
362.62	6.679
362.98	6.719
363.33	6.713
363.69	6.705
364.04	6.655
364.40	6.641
364.75	6.683
365.11	6.645
365.46	6.651
365.82	6.619
366.17	6.569
366.53	6.554
366.88	6.500
367.24	6.475
367.59	6.487
367.95	6.449
368.30	6.432
368.66	6.382
369.01	6.319
369.37	6.377
369.72	6.401
370.08	6.432
370.43	6.426
370.78	6.430
371.14	6.460
371.49	6.406
371.85	6.524
372.20	6.587
372.56	6.610
372.91	6.615
373.26	6.645
373.62	6.674
373.97	6.732
374.33	6.784
374.68	6.855
375.03	6.879
375.39	6.894
375.74	6.873
376.10	6.851
376.45	6.832
376.80	6.894
377.16	6.877
377.51	6.872
377.87	6.914
378.22	6.908
378.57	6.910
378.93	6.994
379.28	7.025
379.63	7.064
379.99	7.068
380.34	7.122
380.70	7.119
381.05	7.194
381.40	7.250
381.76	7.245
382.11	7.234
382.46	7.301
382.82	7.316
383.17	7.411
383.52	7.460
383.88	7.554
384.23	7.589
384.58	7.644
384.94	7.614
385.29	7.641
385.64	7.696
385.99	7.765
386.35	7.780
386.70	7.762
387.05	7.798
387.41	7.804
387.76	7.840
388.11	7.904
388.47	7.942
388.82	8.003
389.17	8.054
389.52	8.080
389.88	8.152
390.23	8.174
390.58	8.232
390.93	8.291
391.29	8.370
391.64	8.430
391.99	8.477
392.34	8.591
392.70	8.623
393.05	8.632
393.40	8.670
393.75	8.666
394.11	8.755
394.46	8.810
394.81	8.818
395.16	8.834
395.52	8.809
395.87	8.825
396.22	8.769
396.57	8.820
396.92	8.897
397.28	8.977
397.63	9.037
397.98	9.039
398.33	9.097
398.68	9.138
399.04	9.205
399.39	9.318
399.74	9.390
400.09	9.501
400.44	9.591
400.80	9.682
401.15	9.721
401.50	9.804
401.85	9.913
402.20	9.939
402.55	10.022
402.90	10.089
403.26	10.114
403.61	10.176
403.96	10.204
404.31	10.260
404.66	10.272
405.01	10.367
405.36	10.423
405.72	10.457
406.07	10.557
406.42	10.648
406.77	10.731
407.12	10.832
407.47	10.925
407.82	11.046
408.17	11.137
408.53	11.249
408.88	11.306
409.23	11.390
409.58	11.481
409.93	11.580
410.28	11.662
410.63	11.712
410.98	11.806
411.33	11.862
411.68	11.932
412.03	11.962
412.38	12.046
412.73	12.106
413.09	12.155
413.44	12.205
413.79	12.268
414.14	12.344
414.49	12.430
414.84	12.523
415.19	12.594
415.54	12.633
415.89	12.769
416.24	12.812
416.59	12.891
416.94	12.967
417.29	13.055
417.64	13.111
417.99	13.164
418.34	13.226
418.69	13.277
419.04	13.338
419.39	13.444
419.74	13.500
420.09	13.564
420.44	13.630
420.79	13.698
421.14	13.768
421.49	13.853
421.84	13.936
422.19	14.036
422.54	14.128
422.89	14.219
423.24	14.266
423.59	14.342
423.94	14.449
424.29	14.526
424.64	14.628
424.99	14.720
425.34	14.834
425.68	14.936
426.03	15.024
426.38	15.107
426.73	15.221
427.08	15.377
427.43	15.482
427.78	15.570
428.13	15.727
428.48	15.838
428.83	15.930
429.18	16.017
429.53	16.092
429.87	16.189
430.22	16.273
430.57	16.375
430.92	16.449
431.27	16.553
431.62	16.648
431.97	16.712
432.32	16.803
432.67	16.905
433.01	16.987
433.36	17.090
433.71	17.198
434.06	17.328
434.41	17.415
434.76	17.517
435.11	17.600
435.45	17.699
435.80	17.786
436.15	17.890
436.50	17.976
436.85	18.085
437.20	18.161
437.54	18.240
437.89	18.292
438.24	18.359
438.59	18.411
438.94	18.486
439.29	18.563
439.63	18.640
439.98	18.692
440.33	18.774
440.68	18.816
441.03	18.875
441.37	18.924
441.72	18.994
442.07	19.054
442.42	19.123
442.76	19.194
443.11	19.256
443.46	19.298
443.81	19.364
444.16	19.400
444.50	19.467
444.85	19.507
445.20	19.535
445.55	19.556
445.89	19.614
446.24	19.659
446.59	19.692
446.94	19.743
447.28	19.801
447.63	19.845
447.98	19.901
448.32	19.942
448.67	20.022
449.02	20.125
449.37	20.229
449.71	20.259
450.06	20.317
450.41	20.354
450.75	20.392
451.10	20.454
451.45	20.529
451.79	20.577
452.14	20.621
452.49	20.676
452.84	20.728
453.18	20.766
453.53	20.887
453.88	20.939
454.22	21.039
454.57	21.062
454.92	21.124
455.26	21.168
455.61	21.245
455.95	21.310
456.30	21.379
456.65	21.447
456.99	21.496
457.34	21.502
457.69	21.569
458.03	21.610
458.38	21.686
458.73	21.724
459.07	21.792
459.42	21.832
459.76	21.877
460.11	21.929
460.46	21.960
460.80	22.031
461.15	22.133
461.49	22.201
461.84	22.266
462.19	22.370
462.53	22.461
462.88	22.493
463.22	22.536
463.57	22.613
463.91	22.666
464.26	22.728
464.61	22.783
464.95	22.832
465.30	22.880
465.64	22.920
465.99	22.944
466.33	22.996
466.68	23.054
467.02	23.146
467.37	23.180
467.71	23.209
468.06	23.274
468.41	23.326
468.75	23.363
469.10	23.427
469.44	23.482
469.79	23.529
470.13	23.560
470.48	23.598
470.82	23.628
471.17	23.661
471.51	23.712
471.86	23.725
472.20	23.741
472.55	23.736
472.89	23.721
473.23	23.725
473.58	23.749
473.92	23.781
474.27	23.803
474.61	23.834
474.96	23.857
475.30	23.868
475.65	23.897
475.99	23.920
476.34	23.975
476.68	24.007
477.02	24.043
477.37	24.041
477.71	24.047
478.06	24.099
478.40	24.150
478.75	24.282
479.09	24.433
479.43	24.632
479.78	24.824
480.12	25.013
480.47	25.188
480.81	25.366
481.15	25.532
481.50	25.723
481.84	25.967
482.19	26.227
482.53	26.412
482.87	26.445
483.22	26.258
483.56	26.151
483.90	26.084
484.25	26.028
484.59	25.979
484.94	25.919
485.28	25.822
485.62	25.622
485.97	25.391
486.31	25.204
486.65	25.200
487.00	25.424
487.34	25.562
487.68	25.626
488.03	25.682
488.37	25.695
488.71	25.707
489.06	25.711
489.40	25.746
489.74	25.785
490.09	25.799
490.43	25.772
490.77	25.769
491.11	25.772
491.46	25.775
491.80	25.766
492.14	25.771
492.49	25.799
492.83	25.831
493.17	25.852
493.51	25.863
493.86	25.936
494.20	26.050
494.54	26.130
494.88	26.215
495.23	26.305
495.57	26.380
495.91	26.468
496.25	26.540
496.60	26.627
496.94	26.674
497.28	26.748
497.62	26.822
497.97	26.889
498.31	26.962
498.65	27.026
498.99	27.106
499.33	27.170
499.68	27.258
500.02	27.336
500.36	27.411
500.70	27.542
501.04	27.617
501.39	27.665
501.73	27.714
502.07	27.814
502.41	27.895
502.75	27.982
503.09	28.126
503.44	28.194
503.78	28.320
504.12	28.408
504.46	28.473
504.80	28.559
505.14	28.668
505.49	28.783
505.83	28.859
506.17	28.923
506.51	29.002
506.85	29.058
507.19	29.147
507.53	29.187
507.87	29.238
508.22	29.313
508.56	29.430
508.90	29.529
509.24	29.615
509.58	29.698
509.92	29.833
510.26	29.922
510.60	30.010
510.94	30.081
511.28	30.179
511.63	30.299
511.97	30.409
512.31	30.498
512.65	30.588
512.99	30.672
513.33	30.794
513.67	30.863
514.01	30.969
514.35	31.047
514.69	31.140
515.03	31.249
515.37	31.332
515.71	31.391
516.05	31.444
516.39	31.521
516.73	31.603
517.07	31.641
517.41	31.708
517.75	31.724
518.09	31.797
518.43	31.863
518.77	31.901
519.11	31.934
519.45	31.997
519.79	32.054
520.13	32.088
520.47	32.122
520.81	32.188
521.15	32.224
521.49	32.327
521.83	32.370
522.17	32.434
522.51	32.516
522.85	32.652
523.19	32.812
523.53	32.939
523.87	33.134
524.21	33.347
524.55	33.572
524.89	33.777
525.23	33.997
525.57	34.184
525.91	34.353
526.25	34.508
526.58	34.610
526.92	34.694
527.26	34.779
527.60	34.830
527.94	34.858
528.28	34.838
528.62	34.816
528.96	34.737
529.30	34.690
529.64	34.643
529.97	34.564
530.31	34.513
530.65	34.462
530.99	34.433
531.33	34.396
531.67	34.372
532.01	34.380
532.35	34.377
532.68	34.397
533.02	34.413
533.36	34.392
533.70	34.384
534.04	34.397
534.38	34.387
534.71	34.399
535.05	34.411
535.39	34.386
535.73	34.380
536.07	34.422
536.41	34.467
536.74	34.503
537.08	34.567
537.42	34.675
537.76	34.755
538.10	34.851
538.43	34.932
538.77	35.004
539.11	35.097
539.45	35.180
539.79	35.232
540.12	35.294
540.46	35.353
540.80	35.374
541.14	35.354
541.47	35.339
541.81	35.334
542.15	35.313
542.49	35.307
542.82	35.297
543.16	35.275
543.50	35.279
543.84	35.231
544.17	35.172
544.51	35.164
544.85	35.179
545.18	35.233
545.52	35.221
545.86	35.251
546.20	35.232
546.53	35.240
546.87	35.244
547.21	35.237
547.54	35.283
547.88	35.299
548.22	35.333
548.55	35.348
548.89	35.322
549.23	35.344
549.56	35.324
549.90	35.337
550.24	35.367
550.57	35.386
550.91	35.373
551.25	35.346
551.58	35.377
551.92	35.394
552.26	35.406
552.59	35.435
552.93	35.466
553.27	35.466
553.60	35.549
553.94	35.558
554.27	35.570
554.61	35.589
554.95	35.599
555.28	35.643
555.62	35.648
555.95	35.676
556.29	35.671
556.63	35.666
556.96	35.707
557.30	35.705
557.63	35.673
557.97	35.654
558.31	35.659
558.64	35.665
558.98	35.627
559.31	35.652
559.65	35.662
559.98	35.661
560.32	35.630
560.65	35.675
560.99	35.638
561.33	35.696
561.66	35.717
562.00	35.751
562.33	35.777
562.67	35.817
563.00	35.800
563.34	35.835
563.67	35.858
564.01	35.924
564.34	35.868
564.68	35.923
565.01	35.888
565.35	35.930
565.68	35.942
566.02	35.966
566.35	35.930
566.69	35.932
567.02	35.946
567.36	35.945
567.69	35.911
568.03	35.973
568.36	35.940
568.69	35.973
569.03	35.937
569.36	35.897
569.70	35.903
570.03	35.936
570.37	35.934
570.70	35.890
571.04	35.874
571.37	35.870
571.70	35.808
572.04	35.821
572.37	35.832
572.71	35.829
573.04	35.858
573.37	35.856
573.71	35.848
574.04	35.859
574.38	35.868
574.71	35.889
575.04	35.932
575.38	35.966
575.71	35.976
576.05	35.967
576.38	36.000
576.71	36.036
577.05	36.027
577.38	36.015
577.71	36.032
578.05	36.016
578.38	36.011
578.71	35.995
579.05	35.986
579.38	35.980
579.71	35.952
580.05	35.923
580.38	35.881
580.71	35.885
581.05	35.887
581.38	35.877
581.71	35.902
582.05	35.918
582.38	35.902
582.71	35.866
583.04	35.805
583.38	35.777
583.71	35.737
584.04	35.718
584.38	35.714
584.71	35.696
585.04	35.649
585.37	35.619
585.71	35.576
586.04	35.597
586.37	35.604
586.70	35.617
587.04	35.635
587.37	35.672
587.70	35.678
588.03	35.631
588.37	35.604
588.70	35.627
589.03	35.595
589.36	35.608
589.69	35.583
590.03	35.594
590.36	35.515
590.69	35.479
591.02	35.439
591.35	35.420
591.69	35.421
592.02	35.401
592.35	35.343
592.68	35.350
593.01	35.299
593.35	35.265
593.68	35.253
594.01	35.294
594.34	35.306
594.67	35.284
595.00	35.269
595.34	35.208
595.67	35.199
596.00	35.203
596.33	35.177
596.66	35.138
596.99	35.111
597.32	35.084
597.65	35.045
597.99	34.999
598.32	34.956
598.65	34.889
598.98	34.862
599.31	34.850
599.64	34.784
599.97	34.704
600.30	34.654
600.63	34.583
600.96	34.558
601.30	34.536
601.63	34.509
601.96	34.484
602.29	34.443
602.62	34.407
602.95	34.352
603.28	34.372
603.61	34.418
603.94	34.446
604.27	34.413
604.60	34.338
604.93	34.310
605.26	34.261
605.59	34.206
605.92	34.164
606.25	34.104
606.58	34.049
606.91	33.979
607.24	33.916
607.57	33.861
607.90	33.862
608.23	33.842
608.56	33.799
608.89	33.800
609.22	33.828
609.55	33.812
609.88	33.801
610.21	33.818
610.54	33.794
610.87	33.762
611.20	33.756
611.53	33.752
611.86	33.715
612.19	33.726
612.52	33.647
612.85	33.599
613.18	33.579
613.51	33.627
613.84	33.615
614.17	33.555
614.49	33.485
614.82	33.402
615.15	33.347
615.48	33.325
615.81	33.212
616.14	33.221
616.47	33.154
616.80	33.140
617.13	33.042
617.46	32.954
617.78	32.974
618.11	32.944
618.44	32.897
618.77	32.876
619.10	32.817
619.43	32.821
619.76	32.743
620.09	32.690
620.41	32.613
620.74	32.594
621.07	32.532
621.40	32.418
621.73	32.380
622.06	32.359
622.38	32.213
622.71	32.217
623.04	32.173
623.37	32.142
623.70	32.124
624.02	32.051
624.35	31.996
624.68	31.972
625.01	31.964
625.34	31.929
625.66	31.895
625.99	31.897
626.32	31.882
626.65	31.848
626.98	31.800
627.30	31.755
627.63	31.744
627.96	31.708
628.29	31.687
628.61	31.631
628.94	31.562
629.27	31.502
629.60	31.483
629.92	31.390
630.25	31.324
630.58	31.273
630.91	31.167
631.23	31.066
631.56	30.998
631.89	30.928
632.21	30.836
632.54	30.835
632.87	30.770
633.19	30.726
633.52	30.679
633.85	30.613
634.18	30.595
634.50	30.586
634.83	30.604
635.16	30.572
635.48	30.528
635.81	30.480
636.14	30.415
636.46	30.402
636.79	30.356
637.11	30.295
637.44	30.235
637.77	30.115
638.09	30.044
638.42	30.013
638.75	29.970
639.07	29.930
639.40	29.915
639.73	29.833
640.05	29.750
640.38	29.696
640.70	29.646
641.03	29.644
641.36	29.617
641.68	29.634
642.01	29.557
