OOIBase32 Version 2.0.0.6 Data File
++++++++++++++++++++++++++++++++++++
Date: 01-20-2012, 22:49:00
User: Valued Ocean Optics Customer
Spectrometer Serial Number: USB2E2917
Spectrometer Channel: Master
Integration Time (msec): 3
Spectra Averaged: 10
Boxcar Smoothing: 5
Correct for Electrical Dark: Enabled
Time Normalized: Disabled
Dual-beam Reference: Disabled
Reference Channel: Master
Temperature: Not acquired
Spectrometer Type: S2000
ADC Type: USB2000
Number of Pixels in File: 2048
Graph Title: 
>>>>>Begin Spectral Data<<<<<
180.30	0.000
180.67	0.000
181.03	305.623
181.40	121.290
181.77	69.573
182.14	83.766
182.51	2744.322
182.88	153.022
183.25	63.458
183.62	278.388
183.99	186.900
184.36	87.007
184.73	150.480
185.10	41.445
185.46	75.117
185.83	85.756
186.20	-8.744
186.57	-444.450
186.94	-1968.736
187.31	-79.009
187.68	91.302
188.05	-220.227
188.42	-350.947
188.78	-946.650
189.15	-338.898
189.52	-350.821
189.89	-149.124
190.26	-163.001
190.63	-209.178
191.00	-192.309
191.37	-229.326
191.73	-219.197
192.10	-282.661
192.47	-584.325
192.84	-214.377
193.21	-21823.876
193.58	551.994
193.94	257.199
194.31	213.834
194.68	192.329
195.05	300.550
195.42	467.005
195.79	247.046
196.15	189.911
196.52	184.088
196.89	162.418
197.26	1063.659
197.63	-221.582
198.00	-144.718
198.36	-301.971
198.73	-202.234
199.10	-120.047
199.47	-142.248
199.84	-136.246
200.20	-49.005
200.57	-41.720
200.94	-55.716
201.31	-51.318
201.68	8.850
202.04	11.328
202.41	2.038
202.78	-41.341
203.15	-103.608
203.51	-185.535
203.88	-152.512
204.25	-191.038
204.62	-291.051
204.98	-187.285
205.35	-147.267
205.72	-172.231
206.09	-484.367
206.46	-237.476
206.82	-139.120
207.19	-75.742
207.56	-41.286
207.92	-28.722
208.29	-18.478
208.66	-17.347
209.03	-6.896
209.39	-29.568
209.76	-28.175
210.13	-16.566
210.50	-16.567
210.86	4.752
211.23	2.121
211.60	-0.408
211.96	-5.432
212.33	-1.269
212.70	-6.648
213.07	-58.414
213.43	-43.142
213.80	-47.419
214.17	-55.440
214.53	-42.407
214.90	-38.814
215.27	-40.083
215.63	-46.914
216.00	-40.849
216.37	-36.721
216.74	-32.028
217.10	-4.759
217.47	-5.842
217.84	4.387
218.20	1.345
218.57	3.565
218.94	-0.786
219.30	2.980
219.67	8.958
220.04	5.070
220.40	10.735
220.77	10.863
221.13	10.823
221.50	17.859
221.87	14.142
222.23	10.506
222.60	11.018
222.97	8.232
223.33	1.210
223.70	6.105
224.07	6.078
224.43	3.501
224.80	1.112
225.16	0.523
225.53	-0.561
225.90	-0.041
226.26	1.294
226.63	1.763
226.99	0.903
227.36	0.762
227.73	0.106
228.09	1.256
228.46	1.284
228.82	2.433
229.19	2.120
229.56	2.374
229.92	0.985
230.29	0.184
230.65	-0.248
231.02	-1.145
231.38	-0.186
231.75	0.130
232.12	-0.453
232.48	-0.794
232.85	-0.966
233.21	-0.118
233.58	0.638
233.94	2.802
234.31	4.434
234.68	4.897
235.04	5.039
235.41	5.541
235.77	4.030
236.14	3.566
236.50	3.822
236.87	3.737
237.23	4.442
237.60	3.581
237.96	2.358
238.33	1.611
238.69	1.474
239.06	1.708
239.42	1.494
239.79	1.988
240.15	1.681
240.52	1.465
240.88	1.870
241.25	1.651
241.61	2.429
241.98	2.784
242.34	2.774
242.71	2.874
243.07	3.162
243.44	3.002
243.80	3.108
244.17	3.027
244.53	3.242
244.90	3.031
245.26	2.827
245.63	2.548
245.99	2.739
246.36	2.664
246.72	2.404
247.09	2.317
247.45	2.478
247.81	2.490
248.18	2.843
248.54	2.837
248.91	2.845
249.27	3.084
249.64	3.144
250.00	3.017
250.36	3.333
250.73	3.601
251.09	3.536
251.46	3.759
251.82	3.402
252.19	3.280
252.55	3.233
252.91	3.385
253.28	3.590
253.64	3.932
254.01	3.670
254.37	3.348
254.73	2.939
255.10	2.732
255.46	2.343
255.83	2.663
256.19	2.639
256.55	2.682
256.92	2.375
257.28	2.155
257.65	2.264
258.01	2.508
258.37	2.734
258.74	2.962
259.10	3.040
259.46	3.204
259.83	3.092
260.19	2.977
260.55	2.841
260.92	2.895
261.28	3.070
261.64	2.753
262.01	2.329
262.37	2.292
262.73	2.123
263.10	1.872
263.46	1.394
263.82	1.618
264.19	1.730
264.55	1.891
264.91	2.280
265.28	2.342
265.64	2.425
266.00	2.947
266.37	2.894
266.73	3.053
267.09	3.363
267.46	3.345
267.82	3.026
268.18	3.022
268.54	2.748
268.91	2.643
269.27	2.562
269.63	2.756
270.00	2.306
270.36	2.179
270.72	2.224
271.08	2.101
271.45	2.122
271.81	1.907
272.17	1.846
272.53	2.027
272.90	1.859
273.26	1.699
273.62	1.440
273.98	1.494
274.35	1.287
274.71	1.121
275.07	1.263
275.43	1.331
275.80	1.699
276.16	1.779
276.52	1.728
276.88	1.653
277.25	1.461
277.61	1.576
277.97	1.933
278.33	2.147
278.69	2.009
279.06	1.835
279.42	2.101
279.78	2.128
280.14	2.160
280.50	2.383
280.87	2.541
281.23	2.884
281.59	2.792
281.95	2.703
282.31	2.554
282.68	2.578
283.04	2.722
283.40	2.584
283.76	2.697
284.12	2.762
284.48	2.684
284.85	2.663
285.21	2.410
285.57	2.385
285.93	2.163
286.29	2.294
286.65	2.527
287.02	2.400
287.38	2.520
287.74	2.516
288.10	2.644
288.46	2.583
288.82	2.613
289.18	2.871
289.54	3.058
289.91	3.197
290.27	3.301
290.63	2.951
290.99	3.136
291.35	3.085
291.71	3.066
292.07	3.089
292.43	3.141
292.79	3.253
293.16	3.217
293.52	3.328
293.88	3.436
294.24	3.406
294.60	3.550
294.96	3.590
295.32	3.646
295.68	3.660
296.04	3.505
296.40	3.587
296.76	3.555
297.12	3.529
297.49	3.490
297.85	3.439
298.21	3.364
298.57	3.436
298.93	3.542
299.29	3.607
299.65	3.655
300.01	3.620
300.37	3.568
300.73	3.731
301.09	3.811
301.45	3.920
301.81	4.127
302.17	4.236
302.53	4.313
302.89	4.287
303.25	4.289
303.61	4.416
303.97	4.667
304.33	4.748
304.69	4.566
305.05	4.788
305.41	4.833
305.77	4.793
306.13	4.942
306.49	4.995
306.85	5.027
307.21	5.113
307.57	5.101
307.93	5.083
308.29	5.190
308.65	5.365
309.01	5.253
309.37	5.232
309.73	5.300
310.09	5.373
310.45	5.483
310.81	5.481
311.17	5.402
311.53	5.471
311.89	5.533
312.25	5.598
312.61	5.630
312.96	5.731
313.32	5.728
313.68	5.761
314.04	5.826
314.40	5.795
314.76	5.846
315.12	6.009
315.48	6.060
315.84	6.100
316.20	6.175
316.56	6.166
316.92	6.247
317.27	6.354
317.63	6.381
317.99	6.286
318.35	6.272
318.71	6.397
319.07	6.519
319.43	6.570
319.79	6.632
320.15	6.565
320.50	6.640
320.86	6.673
321.22	6.718
321.58	6.875
321.94	7.096
322.30	7.248
322.66	7.259
323.01	7.228
323.37	7.244
323.73	7.287
324.09	7.465
324.45	7.549
324.81	7.787
325.17	7.936
325.52	8.028
325.88	8.128
326.24	8.159
326.60	8.396
326.96	8.580
327.31	8.842
327.67	9.049
328.03	9.183
328.39	9.390
328.75	9.372
329.11	9.495
329.46	9.461
329.82	9.460
330.18	9.602
330.54	9.580
330.90	9.658
331.25	9.721
331.61	9.773
331.97	9.827
332.33	9.995
332.68	10.134
333.04	10.156
333.40	10.476
333.76	10.565
334.11	10.560
334.47	10.709
334.83	10.744
335.19	10.661
335.54	10.711
335.90	10.731
336.26	10.641
336.62	10.710
336.97	10.730
337.33	10.634
337.69	10.679
338.05	10.786
338.40	10.724
338.76	10.743
339.12	10.810
339.48	10.775
339.83	10.869
340.19	10.843
340.55	10.723
340.90	10.837
341.26	10.815
341.62	10.817
341.97	10.825
342.33	10.866
342.69	10.744
343.04	10.754
343.40	10.797
343.76	10.797
344.12	10.821
344.47	10.984
344.83	10.924
345.19	10.927
345.54	10.925
345.90	10.892
346.26	10.894
346.61	10.998
346.97	11.015
347.32	11.092
347.68	10.987
348.04	11.022
348.39	10.858
348.75	10.840
349.11	10.759
349.46	10.688
349.82	10.630
350.18	10.629
350.53	10.583
350.89	10.549
351.24	10.490
351.60	10.551
351.96	10.498
352.31	10.527
352.67	10.550
353.02	10.647
353.38	10.604
353.74	10.694
354.09	10.625
354.45	10.639
354.80	10.745
355.16	10.783
355.52	10.816
355.87	10.816
356.23	10.770
356.58	10.738
356.94	10.676
357.29	10.744
357.65	10.678
358.00	10.747
358.36	10.722
358.72	10.659
359.07	10.567
359.43	10.512
359.78	10.532
360.14	10.559
360.49	10.554
360.85	10.560
361.20	10.590
361.56	10.610
361.91	10.593
362.27	10.617
362.62	10.548
362.98	10.600
363.33	10.605
363.69	10.633
364.04	10.690
364.40	10.680
364.75	10.759
365.11	10.782
365.46	10.818
365.82	10.838
366.17	10.807
366.53	10.860
366.88	10.796
367.24	10.825
367.59	10.791
367.95	10.684
368.30	10.709
368.66	10.681
369.01	10.657
369.37	10.655
369.72	10.650
370.08	10.766
370.43	10.786
370.78	10.859
371.14	10.872
371.49	10.876
371.85	11.006
372.20	11.021
372.56	11.061
372.91	11.091
373.26	11.075
373.62	11.084
373.97	11.071
374.33	11.096
374.68	11.089
375.03	11.091
375.39	11.113
375.74	11.038
376.10	11.056
376.45	11.019
376.80	11.027
377.16	11.035
377.51	11.089
377.87	11.141
378.22	11.157
378.57	11.167
378.93	11.213
379.28	11.266
379.63	11.389
379.99	11.454
380.34	11.522
380.70	11.583
381.05	11.625
381.40	11.652
381.76	11.664
382.11	11.657
382.46	11.743
382.82	11.751
383.17	11.823
383.52	11.858
383.88	11.872
384.23	11.916
384.58	11.876
384.94	11.932
385.29	11.924
385.64	11.960
385.99	12.044
386.35	12.029
386.70	12.038
387.05	12.048
387.41	12.033
387.76	12.031
388.11	12.052
388.47	12.113
388.82	12.110
389.17	12.086
389.52	12.098
389.88	12.098
390.23	12.111
390.58	12.127
390.93	12.121
391.29	12.176
391.64	12.230
391.99	12.233
392.34	12.236
392.70	12.251
393.05	12.290
393.40	12.258
393.75	12.277
394.11	12.342
394.46	12.365
394.81	12.337
395.16	12.271
395.52	12.230
395.87	12.239
396.22	12.213
396.57	12.233
396.92	12.249
397.28	12.253
397.63	12.225
397.98	12.156
398.33	12.120
398.68	12.106
399.04	12.138
399.39	12.138
399.74	12.090
400.09	12.105
400.44	12.076
400.80	12.050
401.15	12.048
401.50	12.094
401.85	12.110
402.20	12.144
402.55	12.184
402.90	12.164
403.26	12.188
403.61	12.230
403.96	12.218
404.31	12.236
404.66	12.266
405.01	12.282
405.36	12.246
405.72	12.255
406.07	12.224
406.42	12.225
406.77	12.238
407.12	12.236
407.47	12.212
407.82	12.210
408.17	12.215
408.53	12.186
408.88	12.224
409.23	12.198
409.58	12.177
409.93	12.202
410.28	12.191
410.63	12.151
410.98	12.140
411.33	12.153
411.68	12.142
412.03	12.098
412.38	12.094
412.73	12.021
413.09	12.021
413.44	11.999
413.79	11.972
414.14	11.955
414.49	11.935
414.84	11.904
415.19	11.843
415.54	11.805
415.89	11.780
416.24	11.755
416.59	11.749
416.94	11.698
417.29	11.663
417.64	11.611
417.99	11.566
418.34	11.546
418.69	11.529
419.04	11.502
419.39	11.488
419.74	11.467
420.09	11.427
420.44	11.386
420.79	11.366
421.14	11.353
421.49	11.335
421.84	11.332
422.19	11.326
422.54	11.290
422.89	11.283
423.24	11.269
423.59	11.253
423.94	11.261
424.29	11.247
424.64	11.266
424.99	11.236
425.34	11.251
425.68	11.234
426.03	11.209
426.38	11.229
426.73	11.236
427.08	11.239
427.43	11.247
427.78	11.240
428.13	11.269
428.48	11.256
428.83	11.298
429.18	11.308
429.53	11.319
429.87	11.357
430.22	11.369
430.57	11.363
430.92	11.383
431.27	11.396
431.62	11.421
431.97	11.425
432.32	11.441
432.67	11.438
433.01	11.450
433.36	11.448
433.71	11.443
434.06	11.461
434.41	11.467
434.76	11.465
435.11	11.461
435.45	11.454
435.80	11.450
436.15	11.452
436.50	11.432
436.85	11.443
437.20	11.448
437.54	11.447
437.89	11.429
438.24	11.432
438.59	11.407
438.94	11.384
439.29	11.376
439.63	11.354
439.98	11.324
440.33	11.310
440.68	11.259
441.03	11.211
441.37	11.141
441.72	11.065
442.07	11.022
442.42	10.977
442.76	10.949
443.11	10.894
443.46	10.862
443.81	10.838
444.16	10.813
444.50	10.793
444.85	10.754
445.20	10.722
445.55	10.698
445.89	10.661
446.24	10.632
446.59	10.594
446.94	10.566
447.28	10.517
447.63	10.468
447.98	10.408
448.32	10.349
448.67	10.330
449.02	10.318
449.37	10.288
449.71	10.250
450.06	10.254
450.41	10.245
450.75	10.208
451.10	10.199
451.45	10.197
451.79	10.218
452.14	10.216
452.49	10.199
452.84	10.185
453.18	10.173
453.53	10.187
453.88	10.154
454.22	10.183
454.57	10.221
454.92	10.267
455.26	10.296
455.61	10.313
455.95	10.323
456.30	10.367
456.65	10.400
456.99	10.461
457.34	10.498
457.69	10.538
458.03	10.548
458.38	10.565
458.73	10.570
459.07	10.583
459.42	10.610
459.76	10.662
460.11	10.688
460.46	10.720
460.80	10.758
461.15	10.792
461.49	10.845
461.84	10.897
462.19	10.982
462.53	11.052
462.88	11.100
463.22	11.157
463.57	11.208
463.91	11.283
464.26	11.345
464.61	11.393
464.95	11.470
465.30	11.523
465.64	11.567
465.99	11.615
466.33	11.664
466.68	11.721
467.02	11.764
467.37	11.803
467.71	11.801
468.06	11.836
468.41	11.865
468.75	11.856
469.10	11.876
469.44	11.899
469.79	11.890
470.13	11.897
470.48	11.910
470.82	11.903
471.17	11.904
471.51	11.918
471.86	11.895
472.20	11.898
472.55	11.913
472.89	11.882
473.23	11.871
473.58	11.844
473.92	11.832
474.27	11.803
474.61	11.791
474.96	11.743
475.30	11.716
475.65	11.694
475.99	11.639
476.34	11.578
476.68	11.555
477.02	11.517
477.37	11.485
477.71	11.444
478.06	11.439
478.40	11.439
478.75	11.483
479.09	11.523
479.43	11.590
479.78	11.668
480.12	11.758
480.47	11.853
480.81	11.927
481.15	12.014
481.50	12.098
481.84	12.213
482.19	12.333
482.53	12.419
482.87	12.441
483.22	12.361
483.56	12.307
483.90	12.290
484.25	12.257
484.59	12.243
484.94	12.203
485.28	12.163
485.62	12.069
485.97	11.967
486.31	11.897
486.65	11.911
487.00	12.038
487.34	12.139
487.68	12.178
488.03	12.233
488.37	12.276
488.71	12.337
489.06	12.379
489.40	12.441
489.74	12.505
490.09	12.560
490.43	12.596
490.77	12.653
491.11	12.702
491.46	12.756
491.80	12.830
492.14	12.906
492.49	13.006
492.83	13.121
493.17	13.258
493.51	13.388
493.86	13.555
494.20	13.739
494.54	13.909
494.88	14.110
495.23	14.298
495.57	14.453
495.91	14.619
496.25	14.788
496.60	14.976
496.94	15.134
497.28	15.345
497.62	15.533
497.97	15.726
498.31	15.954
498.65	16.191
498.99	16.460
499.33	16.747
499.68	17.037
500.02	17.303
500.36	17.598
500.70	17.918
501.04	18.184
501.39	18.496
501.73	18.809
502.07	19.122
502.41	19.388
502.75	19.684
503.09	20.014
503.44	20.319
503.78	20.664
504.12	20.970
504.46	21.302
504.80	21.655
505.14	21.970
505.49	22.316
505.83	22.660
506.17	22.991
506.51	23.319
506.85	23.629
507.19	23.975
507.53	24.296
507.87	24.635
508.22	24.934
508.56	25.260
508.90	25.602
509.24	25.917
509.58	26.213
509.92	26.570
510.26	26.877
510.60	27.216
510.94	27.508
511.28	27.818
511.63	28.144
511.97	28.503
512.31	28.826
512.65	29.149
512.99	29.522
513.33	29.878
513.67	30.208
514.01	30.611
514.35	30.918
514.69	31.296
515.03	31.612
515.37	31.890
515.71	32.143
516.05	32.404
516.39	32.626
516.73	32.821
517.07	33.019
517.41	33.218
517.75	33.400
518.09	33.628
518.43	33.808
518.77	34.008
519.11	34.196
519.45	34.404
519.79	34.577
520.13	34.803
520.47	35.045
520.81	35.320
521.15	35.559
521.49	35.767
521.83	35.934
522.17	36.092
522.51	36.266
522.85	36.499
523.19	36.763
523.53	37.035
523.87	37.376
524.21	37.723
524.55	38.027
524.89	38.318
525.23	38.591
525.57	38.849
525.91	39.093
526.25	39.327
526.58	39.531
526.92	39.691
527.26	39.846
527.60	39.952
527.94	40.003
528.28	40.036
528.62	40.059
528.96	40.072
529.30	40.087
529.64	40.102
529.97	40.082
530.31	40.057
530.65	40.053
530.99	40.056
531.33	40.083
531.67	40.128
532.01	40.173
532.35	40.216
532.68	40.269
533.02	40.311
533.36	40.308
533.70	40.330
534.04	40.347
534.38	40.351
534.71	40.389
535.05	40.356
535.39	40.358
535.73	40.390
536.07	40.471
536.41	40.535
536.74	40.618
537.08	40.735
537.42	40.848
537.76	40.978
538.10	41.149
538.43	41.265
538.77	41.420
539.11	41.540
539.45	41.658
539.79	41.736
540.12	41.818
540.46	41.853
540.80	41.878
541.14	41.894
541.47	41.883
541.81	41.850
542.15	41.831
542.49	41.808
542.82	41.779
543.16	41.745
543.50	41.692
543.84	41.670
544.17	41.664
544.51	41.671
544.85	41.674
545.18	41.746
545.52	41.770
545.86	41.804
546.20	41.811
546.53	41.829
546.87	41.855
547.21	41.913
547.54	41.897
547.88	41.926
548.22	41.964
548.55	42.002
548.89	42.001
549.23	42.023
549.56	42.050
549.90	42.098
550.24	42.111
550.57	42.111
550.91	42.113
551.25	42.127
551.58	42.153
551.92	42.162
552.26	42.189
552.59	42.226
552.93	42.284
553.27	42.220
553.60	42.219
553.94	42.236
554.27	42.282
554.61	42.287
554.95	42.357
555.28	42.376
555.62	42.383
555.95	42.403
556.29	42.367
556.63	42.330
556.96	42.431
557.30	42.442
557.63	42.453
557.97	42.427
558.31	42.431
558.64	42.371
558.98	42.339
559.31	42.342
559.65	42.359
559.98	42.371
560.32	42.377
560.65	42.367
560.99	42.351
561.33	42.371
561.66	42.344
562.00	42.325
562.33	42.357
562.67	42.376
563.00	42.394
563.34	42.391
563.67	42.377
564.01	42.344
564.34	42.354
564.68	42.390
565.01	42.345
565.35	42.370
565.68	42.385
566.02	42.379
566.35	42.362
566.69	42.301
567.02	42.263
567.36	42.254
567.69	42.247
568.03	42.198
568.36	42.117
568.69	42.077
569.03	42.000
569.36	41.938
569.70	41.941
570.03	41.947
570.37	41.952
570.70	41.986
571.04	41.984
571.37	41.997
571.70	41.969
572.04	41.968
572.37	42.038
572.71	42.088
573.04	42.136
573.37	42.135
573.71	42.113
574.04	42.099
574.38	42.043
574.71	42.010
575.04	41.998
575.38	42.008
575.71	42.008
576.05	41.983
576.38	41.951
576.71	41.940
577.05	41.869
577.38	41.838
577.71	41.829
578.05	41.813
578.38	41.826
578.71	41.805
579.05	41.810
579.38	41.826
579.71	41.750
580.05	41.717
580.38	41.684
580.71	41.666
581.05	41.646
581.38	41.629
581.71	41.589
582.05	41.545
582.38	41.465
582.71	41.417
583.04	41.370
583.38	41.338
583.71	41.320
584.04	41.309
584.38	41.311
584.71	41.250
585.04	41.218
585.37	41.195
585.71	41.155
586.04	41.151
586.37	41.086
586.70	41.054
587.04	41.018
587.37	41.022
587.70	40.975
588.03	40.946
588.37	40.905
588.70	40.914
589.03	40.880
589.36	40.843
589.69	40.784
590.03	40.800
590.36	40.696
590.69	40.675
591.02	40.584
591.35	40.502
591.69	40.440
592.02	40.393
592.35	40.307
592.68	40.241
593.01	40.182
593.35	40.125
593.68	40.064
594.01	40.093
594.34	40.076
594.67	40.028
595.00	39.984
595.34	39.903
595.67	39.884
596.00	39.845
596.33	39.841
596.66	39.835
596.99	39.852
597.32	39.834
597.65	39.754
597.99	39.660
598.32	39.611
598.65	39.548
598.98	39.553
599.31	39.478
599.64	39.382
599.97	39.264
600.30	39.171
600.63	39.053
600.96	38.962
601.30	38.909
601.63	38.904
601.96	38.878
602.29	38.838
602.62	38.778
602.95	38.742
603.28	38.716
603.61	38.727
603.94	38.704
604.27	38.658
604.60	38.609
604.93	38.538
605.26	38.455
605.59	38.387
605.92	38.300
606.25	38.200
606.58	38.101
606.91	38.017
607.24	37.950
607.57	37.898
607.90	37.912
608.23	37.868
608.56	37.857
608.89	37.830
609.22	37.790
609.55	37.816
609.88	37.805
610.21	37.816
610.54	37.833
610.87	37.815
611.20	37.760
611.53	37.692
611.86	37.640
612.19	37.595
612.52	37.528
612.85	37.467
613.18	37.440
613.51	37.364
613.84	37.312
614.17	37.241
614.49	37.178
614.82	37.115
615.15	37.072
615.48	37.028
615.81	36.922
616.14	36.850
616.47	36.752
616.80	36.609
617.13	36.562
617.46	36.525
617.78	36.512
618.11	36.378
618.44	36.315
618.77	36.203
619.10	36.144
619.43	36.087
619.76	36.015
620.09	35.957
620.41	35.886
620.74	35.815
621.07	35.752
621.40	35.666
621.73	35.633
622.06	35.597
622.38	35.512
622.71	35.463
623.04	35.357
623.37	35.297
623.70	35.251
624.02	35.197
624.35	35.165
624.68	35.083
625.01	34.991
625.34	34.900
625.66	34.843
625.99	34.780
626.32	34.725
626.65	34.730
626.98	34.683
627.30	34.606
627.63	34.588
627.96	34.530
628.29	34.486
628.61	34.404
628.94	34.379
629.27	34.285
629.60	34.278
629.92	34.182
630.25	34.113
630.58	34.058
630.91	34.029
631.23	33.969
631.56	33.865
631.89	33.821
632.21	33.747
632.54	33.662
632.87	33.641
633.19	33.555
633.52	33.482
633.85	33.396
634.18	33.317
634.50	33.206
634.83	33.101
635.16	33.063
635.48	32.955
635.81	32.899
636.14	32.875
636.46	32.753
636.79	32.667
637.11	32.650
637.44	32.621
