OOIBase32 Version 2.0.0.6 Data File
++++++++++++++++++++++++++++++++++++
Date: 01-22-2012, 21:18:59
User: Valued Ocean Optics Customer
Spectrometer Serial Number: USB2E2917
Spectrometer Channel: Master
Integration Time (msec): 4
Spectra Averaged: 10
Boxcar Smoothing: 5
Correct for Electrical Dark: Enabled
Time Normalized: Disabled
Dual-beam Reference: Disabled
Reference Channel: Master
Temperature: Not acquired
Spectrometer Type: S2000
ADC Type: USB2000
Number of Pixels in File: 2048
Graph Title: 
>>>>>Begin Spectral Data<<<<<
180.30	0.000
180.67	0.000
181.03	-109.802
181.40	15.881
181.77	-93.871
182.14	83.290
182.51	1064.832
182.88	33.747
183.25	181.415
183.62	357.910
183.99	39.093
184.36	-2.708
184.73	-9.348
185.10	2029.762
185.46	-6.737
185.83	14.128
186.20	107.902
186.57	343.584
186.94	85.825
187.31	-51.200
187.68	-1382.710
188.05	-87.426
188.42	-81.978
188.78	209.245
189.15	147.199
189.52	106.311
189.89	94.507
190.26	89.932
190.63	95.463
191.00	97.599
191.37	91.339
191.73	103.000
192.10	88.256
192.47	53.809
192.84	1.823
193.21	-106.957
193.58	-193.030
193.94	-182.325
194.31	-76.747
194.68	-38.420
195.05	-70.128
195.42	-62.685
195.79	-44.887
196.15	-19.998
196.52	8.481
196.89	6.305
197.26	-6.893
197.63	-12.207
198.00	-1.394
198.36	-13.070
198.73	23.199
199.10	71.977
199.47	41.831
199.84	25.512
200.20	12.708
200.57	9.161
200.94	35.081
201.31	41.821
201.68	49.273
202.04	39.237
202.41	32.806
202.78	31.387
203.15	29.738
203.51	27.317
203.88	34.089
204.25	22.317
204.62	14.165
204.98	9.068
205.35	-3.938
205.72	-7.053
206.09	-69.787
206.46	-44.914
206.82	-91.511
207.19	-88.136
207.56	-68.932
207.92	-67.078
208.29	-27.824
208.66	-30.161
209.03	-47.439
209.39	-26.160
209.76	-32.481
210.13	6.915
210.50	1.312
210.86	3.940
211.23	-22.590
211.60	-43.678
211.96	-63.118
212.33	-141.516
212.70	4887.416
213.07	394.587
213.43	287.101
213.80	718.090
214.17	155.540
214.53	813.149
214.90	-57.650
215.27	-4.558
215.63	-6.024
216.00	-1.272
216.37	30.332
216.74	31.364
217.10	25.661
217.47	29.685
217.84	21.002
218.20	7.793
218.57	17.106
218.94	8.883
219.30	12.014
219.67	10.260
220.04	18.703
220.40	21.232
220.77	28.875
221.13	34.243
221.50	23.367
221.87	27.770
222.23	30.050
222.60	17.352
222.97	15.119
223.33	5.310
223.70	-3.921
224.07	-8.369
224.43	-7.432
224.80	-1.372
225.16	-1.734
225.53	-0.451
225.90	-0.962
226.26	-0.747
226.63	1.570
226.99	2.848
227.36	5.378
227.73	7.899
228.09	8.367
228.46	7.310
228.82	5.843
229.19	6.931
229.56	5.672
229.92	6.237
230.29	7.587
230.65	8.548
231.02	6.899
231.38	6.832
231.75	6.570
232.12	4.917
232.48	3.711
232.85	3.685
233.21	3.414
233.58	5.110
233.94	5.639
234.31	5.170
234.68	3.230
235.04	5.803
235.41	4.047
235.77	1.826
236.14	2.439
236.50	3.860
236.87	3.495
237.23	2.348
237.60	0.382
237.96	-0.180
238.33	-1.058
238.69	-0.043
239.06	-1.405
239.42	-0.979
239.79	0.968
240.15	1.468
240.52	1.322
240.88	1.075
241.25	1.298
241.61	1.828
241.98	2.209
242.34	2.294
242.71	1.853
243.07	2.358
243.44	2.893
243.80	2.335
244.17	1.862
244.53	1.628
244.90	1.987
245.26	2.385
245.63	2.523
245.99	2.248
246.36	2.435
246.72	2.453
247.09	2.313
247.45	2.127
247.81	2.394
248.18	2.998
248.54	3.511
248.91	3.210
249.27	2.829
249.64	3.192
250.00	3.574
250.36	3.974
250.73	3.765
251.09	3.373
251.46	3.545
251.82	3.400
252.19	3.083
252.55	2.943
252.91	3.792
253.28	3.996
253.64	3.535
254.01	3.280
254.37	2.940
254.73	3.578
255.10	3.517
255.46	3.790
255.83	3.846
256.19	3.734
256.55	3.744
256.92	3.573
257.28	3.605
257.65	3.715
258.01	3.445
258.37	3.485
258.74	3.502
259.10	3.733
259.46	3.526
259.83	3.508
260.19	3.616
260.55	3.516
260.92	3.304
261.28	3.066
261.64	2.743
262.01	2.934
262.37	2.656
262.73	2.291
263.10	1.938
263.46	1.917
263.82	1.839
264.19	1.586
264.55	1.810
264.91	2.412
265.28	2.765
265.64	2.838
266.00	2.800
266.37	3.186
266.73	3.463
267.09	3.638
267.46	3.361
267.82	3.509
268.18	3.631
268.54	3.473
268.91	3.535
269.27	3.366
269.63	3.260
270.00	3.343
270.36	3.226
270.72	3.051
271.08	2.947
271.45	3.200
271.81	3.398
272.17	3.672
272.53	3.818
272.90	3.482
273.26	3.320
273.62	3.502
273.98	3.753
274.35	3.647
274.71	3.623
275.07	3.952
275.43	3.887
275.80	3.477
276.16	3.142
276.52	3.054
276.88	3.091
277.25	2.840
277.61	3.070
277.97	2.747
278.33	2.780
278.69	2.920
279.06	2.698
279.42	2.859
279.78	2.990
280.14	3.225
280.50	3.216
280.87	3.324
281.23	3.733
281.59	3.476
281.95	3.543
282.31	3.424
282.68	3.461
283.04	3.381
283.40	3.129
283.76	3.021
284.12	2.855
284.48	2.746
284.85	2.641
285.21	2.550
285.57	2.496
285.93	2.533
286.29	2.340
286.65	2.266
287.02	2.355
287.38	2.360
287.74	2.454
288.10	2.568
288.46	2.557
288.82	2.468
289.18	2.392
289.54	2.367
289.91	2.247
290.27	2.588
290.63	2.759
290.99	2.706
291.35	2.895
291.71	2.648
292.07	2.440
292.43	2.379
292.79	2.583
293.16	2.757
293.52	2.905
293.88	2.866
294.24	2.754
294.60	2.703
294.96	2.649
295.32	2.593
295.68	2.696
296.04	2.838
296.40	2.853
296.76	2.732
297.12	2.700
297.49	2.585
297.85	2.891
298.21	3.095
298.57	3.009
298.93	3.128
299.29	3.175
299.65	3.399
300.01	3.309
300.37	3.419
300.73	3.484
301.09	3.399
301.45	3.546
301.81	3.464
302.17	3.343
302.53	3.404
302.89	3.323
303.25	3.293
303.61	3.113
303.97	3.141
304.33	3.283
304.69	3.450
305.05	3.677
305.41	3.690
305.77	3.640
306.13	3.755
306.49	3.803
306.85	3.891
307.21	3.788
307.57	3.815
307.93	3.825
308.29	3.803
308.65	3.598
309.01	3.350
309.37	3.448
309.73	3.427
310.09	3.469
310.45	3.462
310.81	3.519
311.17	3.629
311.53	3.617
311.89	3.629
312.25	3.595
312.61	3.742
312.96	3.988
313.32	3.891
313.68	3.934
314.04	3.939
314.40	3.871
314.76	3.897
315.12	4.037
315.48	4.213
315.84	3.978
316.20	3.932
316.56	3.862
316.92	3.657
317.27	3.671
317.63	3.554
317.99	3.407
318.35	3.482
318.71	3.514
319.07	3.491
319.43	3.266
319.79	3.476
320.15	3.581
320.50	3.652
320.86	3.750
321.22	3.718
321.58	3.743
321.94	3.835
322.30	3.967
322.66	3.946
323.01	3.791
323.37	3.982
323.73	3.999
324.09	4.103
324.45	4.056
324.81	4.073
325.17	4.056
325.52	4.099
325.88	4.001
326.24	3.787
326.60	3.857
326.96	4.008
327.31	3.815
327.67	3.856
328.03	3.822
328.39	3.795
328.75	3.817
329.11	3.971
329.46	3.978
329.82	4.058
330.18	4.174
330.54	4.069
330.90	4.031
331.25	4.210
331.61	4.099
331.97	3.948
332.33	3.979
332.68	4.008
333.04	4.023
333.40	4.044
333.76	4.031
334.11	4.009
334.47	4.105
334.83	4.076
335.19	4.087
335.54	4.104
335.90	4.100
336.26	4.151
336.62	4.225
336.97	4.052
337.33	4.129
337.69	4.104
338.05	4.254
338.40	4.230
338.76	4.255
339.12	4.210
339.48	4.234
339.83	4.293
340.19	4.297
340.55	4.324
340.90	4.367
341.26	4.302
341.62	4.280
341.97	4.194
342.33	4.189
342.69	4.251
343.04	4.273
343.40	4.306
343.76	4.260
344.12	4.248
344.47	4.124
344.83	4.130
345.19	4.069
345.54	4.160
345.90	4.142
346.26	4.139
346.61	4.029
346.97	4.068
347.32	4.097
347.68	4.179
348.04	4.125
348.39	4.094
348.75	4.112
349.11	4.141
349.46	4.075
349.82	4.106
350.18	4.115
350.53	4.259
350.89	4.270
351.24	4.239
351.60	4.162
351.96	4.263
352.31	4.308
352.67	4.330
353.02	4.401
353.38	4.408
353.74	4.349
354.09	4.359
354.45	4.290
354.80	4.222
355.16	4.295
355.52	4.353
355.87	4.269
356.23	4.308
356.58	4.244
356.94	4.229
357.29	4.277
357.65	4.305
358.00	4.216
358.36	4.227
358.72	4.179
359.07	4.040
359.43	4.050
359.78	4.123
360.14	4.122
360.49	4.176
360.85	4.189
361.20	4.162
361.56	4.153
361.91	4.210
362.27	4.201
362.62	4.316
362.98	4.413
363.33	4.415
363.69	4.401
364.04	4.350
364.40	4.364
364.75	4.300
365.11	4.281
365.46	4.292
365.82	4.261
366.17	4.236
366.53	4.175
366.88	4.168
367.24	4.147
367.59	4.167
367.95	4.273
368.30	4.277
368.66	4.379
369.01	4.459
369.37	4.501
369.72	4.540
370.08	4.624
370.43	4.652
370.78	4.674
371.14	4.707
371.49	4.668
371.85	4.658
372.20	4.732
372.56	4.746
372.91	4.755
373.26	4.755
373.62	4.788
373.97	4.805
374.33	4.810
374.68	4.858
375.03	4.868
375.39	4.888
375.74	4.892
376.10	4.872
376.45	4.907
376.80	4.904
377.16	4.882
377.51	4.936
377.87	4.958
378.22	5.012
378.57	5.022
378.93	5.039
379.28	5.088
379.63	5.133
379.99	5.217
380.34	5.206
380.70	5.274
381.05	5.365
381.40	5.355
381.76	5.365
382.11	5.353
382.46	5.357
382.82	5.394
383.17	5.404
383.52	5.413
383.88	5.423
384.23	5.478
384.58	5.459
384.94	5.482
385.29	5.554
385.64	5.585
385.99	5.624
386.35	5.707
386.70	5.756
387.05	5.826
387.41	5.871
387.76	5.861
388.11	5.865
388.47	5.927
388.82	5.978
389.17	6.028
389.52	6.086
389.88	6.178
390.23	6.251
390.58	6.314
390.93	6.395
391.29	6.498
391.64	6.596
391.99	6.703
392.34	6.784
392.70	6.865
393.05	6.892
393.40	6.951
393.75	6.976
394.11	6.992
394.46	7.062
394.81	7.108
395.16	7.136
395.52	7.230
395.87	7.276
396.22	7.360
396.57	7.390
396.92	7.462
397.28	7.499
397.63	7.576
397.98	7.669
398.33	7.741
398.68	7.791
399.04	7.844
399.39	7.844
399.74	7.915
400.09	7.951
400.44	8.020
400.80	8.068
401.15	8.145
401.50	8.224
401.85	8.283
402.20	8.324
402.55	8.417
402.90	8.489
403.26	8.588
403.61	8.636
403.96	8.713
404.31	8.800
404.66	8.904
405.01	9.011
405.36	9.094
405.72	9.154
406.07	9.230
406.42	9.336
406.77	9.422
407.12	9.472
407.47	9.564
407.82	9.610
408.17	9.690
408.53	9.732
408.88	9.798
409.23	9.876
409.58	9.988
409.93	10.060
410.28	10.099
410.63	10.184
410.98	10.253
411.33	10.309
411.68	10.438
412.03	10.484
412.38	10.569
412.73	10.620
413.09	10.631
413.44	10.665
413.79	10.733
414.14	10.792
414.49	10.812
414.84	10.866
415.19	10.915
415.54	10.940
415.89	10.965
416.24	11.000
416.59	11.037
416.94	11.092
417.29	11.112
417.64	11.139
417.99	11.156
418.34	11.198
418.69	11.212
419.04	11.224
419.39	11.258
419.74	11.324
420.09	11.364
420.44	11.401
420.79	11.443
421.14	11.481
421.49	11.548
421.84	11.605
422.19	11.663
422.54	11.748
422.89	11.829
423.24	11.889
423.59	11.957
423.94	12.035
424.29	12.125
424.64	12.234
424.99	12.357
425.34	12.442
425.68	12.558
426.03	12.693
426.38	12.808
426.73	12.949
427.08	13.048
427.43	13.131
427.78	13.203
428.13	13.268
428.48	13.331
428.83	13.368
429.18	13.428
429.53	13.481
429.87	13.499
430.22	13.520
430.57	13.557
430.92	13.611
431.27	13.637
431.62	13.668
431.97	13.709
432.32	13.745
432.67	13.821
433.01	13.900
433.36	13.966
433.71	14.034
434.06	14.109
434.41	14.152
434.76	14.246
435.11	14.318
435.45	14.393
435.80	14.426
436.15	14.462
436.50	14.468
436.85	14.466
437.20	14.462
437.54	14.480
437.89	14.512
438.24	14.543
438.59	14.532
438.94	14.537
439.29	14.577
439.63	14.614
439.98	14.666
440.33	14.705
440.68	14.755
441.03	14.795
441.37	14.817
441.72	14.841
442.07	14.861
442.42	14.870
442.76	14.912
443.11	14.919
443.46	14.923
443.81	14.923
444.16	14.956
444.50	14.954
444.85	14.985
445.20	15.051
445.55	15.090
445.89	15.119
446.24	15.176
446.59	15.232
446.94	15.288
447.28	15.382
447.63	15.444
447.98	15.496
448.32	15.571
448.67	15.624
449.02	15.652
449.37	15.692
449.71	15.772
450.06	15.834
450.41	15.872
450.75	15.902
451.10	15.940
451.45	15.982
451.79	16.032
452.14	16.102
452.49	16.160
452.84	16.181
453.18	16.228
453.53	16.251
453.88	16.253
454.22	16.277
454.57	16.301
454.92	16.301
455.26	16.307
455.61	16.301
455.95	16.295
456.30	16.272
456.65	16.281
456.99	16.282
457.34	16.284
457.69	16.310
458.03	16.315
458.38	16.356
458.73	16.402
459.07	16.446
459.42	16.509
459.76	16.560
460.11	16.667
460.46	16.750
460.80	16.822
461.15	16.909
461.49	16.965
461.84	17.071
462.19	17.151
462.53	17.190
462.88	17.257
463.22	17.296
463.57	17.361
463.91	17.388
464.26	17.455
464.61	17.491
464.95	17.547
465.30	17.626
465.64	17.665
465.99	17.684
466.33	17.765
466.68	17.807
467.02	17.865
467.37	17.870
467.71	17.896
468.06	17.906
468.41	17.951
468.75	17.969
469.10	18.008
469.44	18.045
469.79	18.072
470.13	18.088
470.48	18.109
470.82	18.114
471.17	18.142
471.51	18.152
471.86	18.183
472.20	18.168
472.55	18.177
472.89	18.185
473.23	18.168
473.58	18.160
473.92	18.127
474.27	18.138
474.61	18.111
474.96	18.110
475.30	18.105
475.65	18.080
475.99	18.094
476.34	18.080
476.68	18.047
477.02	18.050
477.37	18.062
477.71	18.060
478.06	18.026
478.40	18.019
478.75	18.041
479.09	18.091
479.43	18.141
479.78	18.236
480.12	18.356
480.47	18.488
480.81	18.610
481.15	18.755
481.50	18.922
481.84	19.154
482.19	19.384
482.53	19.551
482.87	19.600
483.22	19.502
483.56	19.269
483.90	19.013
484.25	18.817
484.59	18.728
484.94	18.587
485.28	18.423
485.62	18.198
485.97	17.950
486.31	17.745
486.65	17.653
487.00	17.749
487.34	17.975
487.68	18.219
488.03	18.374
488.37	18.385
488.71	18.421
489.06	18.450
489.40	18.459
489.74	18.493
490.09	18.539
490.43	18.578
490.77	18.593
491.11	18.634
491.46	18.667
491.80	18.694
492.14	18.733
492.49	18.763
492.83	18.794
493.17	18.818
493.51	18.833
493.86	18.847
494.20	18.869
494.54	18.892
494.88	18.906
495.23	18.909
495.57	18.923
495.91	18.965
496.25	18.995
496.60	19.030
496.94	19.086
497.28	19.129
497.62	19.140
497.97	19.175
498.31	19.218
498.65	19.247
498.99	19.315
499.33	19.400
499.68	19.414
500.02	19.432
500.36	19.455
500.70	19.459
501.04	19.492
501.39	19.535
501.73	19.550
502.07	19.566
502.41	19.584
502.75	19.583
503.09	19.557
503.44	19.563
503.78	19.591
504.12	19.602
504.46	19.611
504.80	19.623
505.14	19.632
505.49	19.653
505.83	19.658
506.17	19.668
506.51	19.675
506.85	19.672
507.19	19.701
507.53	19.706
507.87	19.725
508.22	19.754
508.56	19.755
508.90	19.753
509.24	19.758
509.58	19.770
509.92	19.778
510.26	19.806
510.60	19.846
510.94	19.853
511.28	19.880
511.63	19.914
511.97	19.918
512.31	19.962
512.65	19.993
512.99	20.015
513.33	20.053
513.67	20.053
514.01	20.065
514.35	20.053
514.69	20.038
515.03	20.036
515.37	20.000
515.71	20.012
516.05	19.973
516.39	19.959
516.73	19.943
517.07	19.922
517.41	19.938
517.75	19.939
518.09	19.964
518.43	19.980
518.77	19.986
519.11	20.004
519.45	20.012
519.79	20.046
520.13	20.068
520.47	20.081
520.81	20.092
521.15	20.080
521.49	20.048
521.83	20.011
522.17	20.001
522.51	19.946
522.85	19.913
523.19	19.863
523.53	19.840
523.87	19.852
524.21	19.870
524.55	19.902
524.89	19.939
525.23	19.992
525.57	20.036
525.91	20.070
526.25	20.130
526.58	20.168
526.92	20.227
527.26	20.273
527.60	20.278
527.94	20.280
528.28	20.258
528.62	20.225
528.96	20.185
529.30	20.149
529.64	20.107
529.97	20.055
530.31	20.009
530.65	19.923
530.99	19.848
531.33	19.804
531.67	19.765
532.01	19.747
532.35	19.749
532.68	19.750
533.02	19.739
533.36	19.715
533.70	19.703
534.04	19.687
534.38	19.708
534.71	19.705
535.05	19.702
535.39	19.697
535.73	19.670
536.07	19.630
536.41	19.606
536.74	19.571
537.08	19.558
537.42	19.534
537.76	19.531
538.10	19.525
538.43	19.511
538.77	19.505
539.11	19.509
539.45	19.504
539.79	19.502
540.12	19.508
540.46	19.519
540.80	19.497
541.14	19.497
541.47	19.487
541.81	19.464
542.15	19.470
542.49	19.457
542.82	19.435
543.16	19.432
543.50	19.418
543.84	19.390
544.17	19.364
544.51	19.385
544.85	19.385
545.18	19.374
545.52	19.359
545.86	19.356
546.20	19.376
546.53	19.396
546.87	19.417
547.21	19.442
547.54	19.459
547.88	19.480
548.22	19.484
548.55	19.481
548.89	19.486
549.23	19.512
549.56	19.488
549.90	19.439
550.24	19.394
550.57	19.356
550.91	19.324
551.25	19.313
551.58	19.320
551.92	19.316
552.26	19.353
552.59	19.342
552.93	19.351
553.27	19.349
553.60	19.338
553.94	19.338
554.27	19.353
554.61	19.398
554.95	19.405
555.28	19.390
555.62	19.373
555.95	19.308
556.29	19.298
556.63	19.259
556.96	19.240
557.30	19.282
557.63	19.294
557.97	19.288
558.31	19.228
558.64	19.186
558.98	19.187
559.31	19.171
559.65	19.124
559.98	19.115
560.32	19.098
560.65	19.079
560.99	19.014
561.33	18.952
561.66	18.898
562.00	18.862
562.33	18.843
562.67	18.761
563.00	18.716
563.34	18.726
563.67	18.694
564.01	18.662
564.34	18.637
564.68	18.631
565.01	18.626
565.35	18.634
565.68	18.642
566.02	18.624
566.35	18.641
566.69	18.653
567.02	18.612
567.36	18.606
567.69	18.559
568.03	18.510
568.36	18.477
568.69	18.478
569.03	18.436
569.36	18.406
569.70	18.361
570.03	18.326
570.37	18.285
570.70	18.282
571.04	18.248
571.37	18.237
571.70	18.234
572.04	18.226
572.37	18.194
572.71	18.207
573.04	18.185
573.37	18.200
573.71	18.217
574.04	18.203
574.38	18.193
574.71	18.210
575.04	18.244
575.38	18.267
575.71	18.287
576.05	18.305
576.38	18.314
576.71	18.338
577.05	18.355
577.38	18.336
577.71	18.366
578.05	18.380
578.38	18.368
578.71	18.342
579.05	18.311
579.38	18.300
579.71	18.293
580.05	18.286
580.38	18.262
580.71	18.228
581.05	18.209
581.38	18.200
581.71	18.175
582.05	18.154
582.38	18.123
582.71	18.152
583.04	18.113
583.38	18.070
583.71	17.993
584.04	17.965
584.38	17.954
584.71	17.933
585.04	17.880
585.37	17.859
585.71	17.838
586.04	17.811
586.37	17.758
586.70	17.730
587.04	17.703
587.37	17.706
587.70	17.651
588.03	17.594
588.37	17.576
588.70	17.588
589.03	17.548
589.36	17.499
589.69	17.484
590.03	17.425
590.36	17.395
590.69	17.354
591.02	17.321
591.35	17.315
591.69	17.253
592.02	17.195
592.35	17.132
592.68	17.100
593.01	17.042
593.35	16.981
593.68	16.950
594.01	16.901
594.34	16.868
594.67	16.821
595.00	16.776
595.34	16.777
595.67	16.761
596.00	16.727
596.33	16.717
596.66	16.739
596.99	16.736
597.32	16.723
597.65	16.673
597.99	16.661
598.32	16.619
598.65	16.593
598.98	16.563
599.31	16.499
599.64	16.452
599.97	16.384
600.30	16.338
600.63	16.296
600.96	16.285
601.30	16.260
601.63	16.209
601.96	16.195
602.29	16.187
602.62	16.158
602.95	16.161
603.28	16.134
603.61	16.106
603.94	16.068
604.27	16.061
604.60	16.018
604.93	16.040
605.26	16.027
605.59	16.021
605.92	15.980
606.25	15.955
606.58	15.926
606.91	15.921
607.24	15.907
607.57	15.887
607.90	15.845
608.23	15.818
608.56	15.776
608.89	15.757
609.22	15.689
609.55	15.698
609.88	15.690
610.21	15.677
610.54	15.663
610.87	15.660
611.20	15.634
611.53	15.610
611.86	15.624
612.19	15.611
612.52	15.584
612.85	15.615
613.18	15.577
613.51	15.539
613.84	15.508
614.17	15.458
614.49	15.409
614.82	15.450
615.15	15.475
615.48	15.451
615.81	15.460
616.14	15.436
616.47	15.405
616.80	15.405
617.13	15.385
617.46	15.364
617.78	15.366
618.11	15.371
618.44	15.335
618.77	15.311
619.10	15.272
619.43	15.230
619.76	15.190
620.09	15.139
620.41	15.096
620.74	15.063
621.07	15.024
621.40	15.024
621.73	14.999
622.06	14.960
622.38	14.942
622.71	14.897
623.04	14.850
623.37	14.883
623.70	14.857
624.02	14.801
624.35	14.759
624.68	14.753
625.01	14.722
625.34	14.716
625.66	14.696
625.99	14.655
626.32	14.666
626.65	14.691
626.98	14.668
627.30	14.683
627.63	14.702
627.96	14.704
628.29	14.666
628.61	14.633
628.94	14.595
629.27	14.550
629.60	14.538
629.92	14.511
630.25	14.458
630.58	14.394
630.91	14.357
631.23	14.313
631.56	14.327
631.89	14.317
632.21	14.278
632.54	14.259
632.87	14.244
633.19	14.217
633.52	14.201
633.85	14.161
634.18	14.129
634.50	14.092
634.83	14.111
635.16	14.054
635.48	14.010
635.81	14.016
636.14	13.978
636.46	13.987
636.79	13.977
637.11	13.913
637.44	13.920
637.77	13.935
638.09	13.940
638.42	13.853
638.75	13.842
639.07	13.851
639.40	13.794
639.73	13.770
640.05	13.693
640.38	13.676
640.70	13.663
641.03	13.642
641.36	13.617
641.68	13.601
642.01	13.625
642.33	13.647
642.66	13.611
642.98	13.621
643.31	13.584
