OOIBase32 Version 2.0.0.6 Data File
++++++++++++++++++++++++++++++++++++
Date: 01-22-2012, 21:33:14
User: Valued Ocean Optics Customer
Spectrometer Serial Number: USB2E2917
Spectrometer Channel: Master
Integration Time (msec): 4
Spectra Averaged: 10
Boxcar Smoothing: 5
Correct for Electrical Dark: Enabled
Time Normalized: Disabled
Dual-beam Reference: Disabled
Reference Channel: Master
Temperature: Not acquired
Spectrometer Type: S2000
ADC Type: USB2000
Number of Pixels in File: 2048
Graph Title: 
>>>>>Begin Spectral Data<<<<<
180.30	0.000
180.67	0.000
181.03	277.498
181.40	84.209
181.77	-132.763
182.14	43.765
182.51	89.362
182.88	161.893
183.25	88.783
183.62	328.090
183.99	32.980
184.36	72.218
184.73	116.035
185.10	1846.371
185.46	182.021
185.83	59.973
186.20	52.806
186.57	231.944
186.94	86.770
187.31	183.128
187.68	-437.956
188.05	959.476
188.42	677.038
188.78	-379.914
189.15	-81.707
189.52	-13.539
189.89	1.168
190.26	9.047
190.63	-17.225
191.00	-16.443
191.37	-3.275
191.73	26.012
192.10	13.078
192.47	-11.361
192.84	-106.344
193.21	-165.590
193.58	-225.039
193.94	-327.779
194.31	-149.530
194.68	-63.552
195.05	-70.815
195.42	-89.692
195.79	-70.620
196.15	-48.588
196.52	-9.281
196.89	-1.599
197.26	-22.073
197.63	-26.886
198.00	-24.140
198.36	-59.995
198.73	-5.619
199.10	-39.917
199.47	-14.832
199.84	-1.341
200.20	-41.119
200.57	-57.463
200.94	-14.937
201.31	-3.464
201.68	9.064
202.04	11.890
202.41	12.191
202.78	11.296
203.15	19.116
203.51	22.371
203.88	26.204
204.25	24.633
204.62	23.172
204.98	17.003
205.35	-5.141
205.72	-38.259
206.09	-84.607
206.46	-72.456
206.82	-134.961
207.19	-147.509
207.56	-168.148
207.92	-214.317
208.29	-125.512
208.66	-75.968
209.03	-82.930
209.39	-19.064
209.76	-14.234
210.13	11.276
210.50	21.140
210.86	26.471
211.23	4.543
211.60	-39.961
211.96	-44.675
212.33	-123.543
212.70	6255.804
213.07	642.669
213.43	513.538
213.80	1588.036
214.17	322.461
214.53	1589.973
214.90	-153.788
215.27	-31.745
215.63	-20.676
216.00	29.032
216.37	28.867
216.74	22.706
217.10	22.456
217.47	19.927
217.84	20.704
218.20	17.641
218.57	15.044
218.94	-5.592
219.30	-7.906
219.67	-1.608
220.04	-0.489
220.40	-1.169
220.77	3.757
221.13	12.323
221.50	17.718
221.87	22.000
222.23	22.402
222.60	21.059
222.97	19.855
223.33	12.944
223.70	7.393
224.07	2.312
224.43	2.493
224.80	5.401
225.16	2.149
225.53	-1.679
225.90	-2.763
226.26	-0.560
226.63	-0.712
226.99	-0.253
227.36	1.182
227.73	3.121
228.09	1.768
228.46	2.031
228.82	-0.352
229.19	0.399
229.56	-1.062
229.92	0.061
230.29	-0.005
230.65	0.711
231.02	-0.863
231.38	-1.394
231.75	-3.725
232.12	-1.053
232.48	-2.840
232.85	0.594
233.21	-0.428
233.58	2.205
233.94	1.828
234.31	3.298
234.68	3.089
235.04	6.039
235.41	6.013
235.77	5.478
236.14	4.806
236.50	8.175
236.87	7.732
237.23	8.623
237.60	6.906
237.96	5.999
238.33	4.254
238.69	4.445
239.06	3.199
239.42	3.378
239.79	4.844
240.15	4.485
240.52	3.537
240.88	2.563
241.25	1.839
241.61	1.975
241.98	2.447
242.34	2.753
242.71	2.232
243.07	2.317
243.44	3.198
243.80	3.047
244.17	2.940
244.53	2.580
244.90	2.846
245.26	3.240
245.63	3.505
245.99	3.497
246.36	3.558
246.72	3.821
247.09	3.883
247.45	3.777
247.81	3.775
248.18	4.101
248.54	4.604
248.91	4.515
249.27	4.006
249.64	4.280
250.00	4.224
250.36	4.087
250.73	3.494
251.09	3.169
251.46	2.448
251.82	2.415
252.19	2.134
252.55	2.177
252.91	2.437
253.28	2.124
253.64	1.994
254.01	1.410
254.37	1.911
254.73	2.558
255.10	2.991
255.46	3.450
255.83	3.392
256.19	3.092
256.55	3.059
256.92	3.011
257.28	3.439
257.65	3.439
258.01	3.642
258.37	3.479
258.74	3.461
259.10	3.620
259.46	3.569
259.83	3.611
260.19	4.028
260.55	4.037
260.92	4.374
261.28	4.322
261.64	4.263
262.01	4.212
262.37	4.108
262.73	4.000
263.10	3.550
263.46	3.800
263.82	3.703
264.19	3.021
264.55	3.049
264.91	2.682
265.28	2.994
265.64	2.882
266.00	2.897
266.37	3.093
266.73	3.293
267.09	3.355
267.46	2.832
267.82	3.064
268.18	3.594
268.54	3.631
268.91	4.003
269.27	3.739
269.63	3.512
270.00	3.589
270.36	3.637
270.72	3.551
271.08	3.606
271.45	3.907
271.81	3.931
272.17	3.825
272.53	3.826
272.90	3.515
273.26	3.768
273.62	4.108
273.98	4.412
274.35	4.402
274.71	4.185
275.07	4.474
275.43	4.520
275.80	4.483
276.16	4.645
276.52	4.579
276.88	4.657
277.25	4.199
277.61	4.226
277.97	3.759
278.33	3.453
278.69	3.805
279.06	3.517
279.42	3.404
279.78	3.500
280.14	3.334
280.50	3.324
280.87	3.342
281.23	3.443
281.59	3.331
281.95	3.314
282.31	3.277
282.68	3.256
283.04	3.231
283.40	2.944
283.76	2.858
284.12	2.880
284.48	2.932
284.85	2.988
285.21	3.215
285.57	3.361
285.93	3.526
286.29	3.513
286.65	3.483
287.02	3.655
287.38	3.946
287.74	3.903
288.10	3.719
288.46	3.533
288.82	3.460
289.18	3.197
289.54	2.996
289.91	2.898
290.27	3.360
290.63	3.509
290.99	3.343
291.35	3.192
291.71	3.106
292.07	3.272
292.43	3.434
292.79	3.508
293.16	3.677
293.52	3.769
293.88	3.867
294.24	3.645
294.60	3.511
294.96	3.525
295.32	3.557
295.68	3.383
296.04	3.389
296.40	3.261
296.76	3.137
297.12	3.126
297.49	3.124
297.85	3.310
298.21	3.380
298.57	3.282
298.93	3.422
299.29	3.466
299.65	3.834
300.01	3.758
300.37	3.868
300.73	3.980
301.09	4.020
301.45	3.867
301.81	3.791
302.17	3.714
302.53	3.744
302.89	3.602
303.25	3.613
303.61	3.529
303.97	3.696
304.33	3.784
304.69	4.016
305.05	3.989
305.41	4.175
305.77	4.078
306.13	4.183
306.49	4.389
306.85	4.460
307.21	4.357
307.57	4.272
307.93	4.092
308.29	4.125
308.65	3.832
309.01	3.819
309.37	3.740
309.73	3.754
310.09	3.685
310.45	3.568
310.81	3.633
311.17	3.639
311.53	3.660
311.89	3.699
312.25	3.660
312.61	3.807
312.96	3.845
313.32	3.929
313.68	3.744
314.04	3.833
314.40	3.765
314.76	3.686
315.12	3.753
315.48	3.780
315.84	3.695
316.20	3.502
316.56	3.486
316.92	3.368
317.27	3.435
317.63	3.622
317.99	3.620
318.35	3.728
318.71	3.901
319.07	4.016
319.43	3.977
319.79	4.112
320.15	4.402
320.50	4.477
320.86	4.681
321.22	4.729
321.58	4.626
321.94	4.535
322.30	4.672
322.66	4.622
323.01	4.571
323.37	4.793
323.73	4.735
324.09	4.795
324.45	4.770
324.81	4.781
325.17	4.721
325.52	4.841
325.88	4.874
326.24	4.770
326.60	4.705
326.96	4.870
327.31	4.671
327.67	4.904
328.03	4.814
328.39	4.811
328.75	4.714
329.11	4.681
329.46	4.676
329.82	4.721
330.18	4.803
330.54	4.896
330.90	4.846
331.25	4.948
331.61	4.832
331.97	4.907
332.33	4.987
332.68	5.143
333.04	5.306
333.40	5.360
333.76	5.424
334.11	5.379
334.47	5.517
334.83	5.501
335.19	5.483
335.54	5.460
335.90	5.391
336.26	5.361
336.62	5.391
336.97	5.257
337.33	5.278
337.69	5.282
338.05	5.416
338.40	5.231
338.76	5.258
339.12	5.266
339.48	5.248
339.83	5.308
340.19	5.332
340.55	5.264
340.90	5.341
341.26	5.250
341.62	5.280
341.97	5.235
342.33	5.260
342.69	5.304
343.04	5.325
343.40	5.474
343.76	5.470
344.12	5.544
344.47	5.528
344.83	5.570
345.19	5.693
345.54	5.704
345.90	5.661
346.26	5.688
346.61	5.543
346.97	5.560
347.32	5.500
347.68	5.537
348.04	5.475
348.39	5.510
348.75	5.533
349.11	5.487
349.46	5.484
349.82	5.473
350.18	5.444
350.53	5.565
350.89	5.532
351.24	5.572
351.60	5.532
351.96	5.592
352.31	5.616
352.67	5.508
353.02	5.576
353.38	5.526
353.74	5.631
354.09	5.659
354.45	5.624
354.80	5.674
355.16	5.655
355.52	5.660
355.87	5.557
356.23	5.565
356.58	5.601
356.94	5.577
357.29	5.636
357.65	5.589
358.00	5.631
358.36	5.689
358.72	5.665
359.07	5.684
359.43	5.750
359.78	5.869
360.14	5.886
360.49	5.973
360.85	5.954
361.20	5.936
361.56	5.926
361.91	5.913
362.27	5.907
362.62	5.978
362.98	6.031
363.33	6.017
363.69	5.987
364.04	5.968
364.40	5.941
364.75	6.003
365.11	6.056
365.46	6.111
365.82	6.095
366.17	6.091
366.53	6.077
366.88	6.056
367.24	6.122
367.59	6.135
367.95	6.187
368.30	6.214
368.66	6.232
369.01	6.223
369.37	6.248
369.72	6.330
370.08	6.361
370.43	6.409
370.78	6.493
371.14	6.453
371.49	6.473
371.85	6.487
372.20	6.549
372.56	6.619
372.91	6.703
373.26	6.821
373.62	6.835
373.97	6.914
374.33	6.942
374.68	6.911
375.03	6.977
375.39	6.994
375.74	7.060
376.10	7.115
376.45	7.146
376.80	7.140
377.16	7.094
377.51	7.181
377.87	7.256
378.22	7.372
378.57	7.493
378.93	7.579
379.28	7.693
379.63	7.793
379.99	7.859
380.34	7.935
380.70	8.086
381.05	8.209
381.40	8.278
381.76	8.383
382.11	8.398
382.46	8.470
382.82	8.545
383.17	8.595
383.52	8.648
383.88	8.729
384.23	8.824
384.58	8.868
384.94	8.949
385.29	9.066
385.64	9.111
385.99	9.217
386.35	9.298
386.70	9.397
387.05	9.499
387.41	9.593
387.76	9.637
388.11	9.721
388.47	9.806
388.82	9.898
389.17	9.963
389.52	10.035
389.88	10.132
390.23	10.242
390.58	10.322
390.93	10.451
391.29	10.562
391.64	10.707
391.99	10.776
392.34	10.848
392.70	10.933
393.05	11.009
393.40	11.083
393.75	11.175
394.11	11.230
394.46	11.283
394.81	11.353
395.16	11.425
395.52	11.501
395.87	11.572
396.22	11.676
396.57	11.757
396.92	11.835
397.28	11.904
397.63	11.995
397.98	12.100
398.33	12.240
398.68	12.322
399.04	12.368
399.39	12.435
399.74	12.513
400.09	12.579
400.44	12.625
400.80	12.703
401.15	12.762
401.50	12.799
401.85	12.850
402.20	12.859
402.55	12.932
402.90	12.950
403.26	12.990
403.61	13.059
403.96	13.104
404.31	13.184
404.66	13.219
405.01	13.306
405.36	13.361
405.72	13.396
406.07	13.459
406.42	13.490
406.77	13.617
407.12	13.683
407.47	13.747
407.82	13.817
408.17	13.854
408.53	13.967
408.88	14.028
409.23	14.081
409.58	14.168
409.93	14.247
410.28	14.313
410.63	14.325
410.98	14.410
411.33	14.454
411.68	14.500
412.03	14.543
412.38	14.535
412.73	14.557
413.09	14.581
413.44	14.557
413.79	14.547
414.14	14.555
414.49	14.572
414.84	14.560
415.19	14.559
415.54	14.545
415.89	14.516
416.24	14.516
416.59	14.508
416.94	14.522
417.29	14.527
417.64	14.519
417.99	14.519
418.34	14.526
418.69	14.524
419.04	14.522
419.39	14.565
419.74	14.613
420.09	14.636
420.44	14.649
420.79	14.672
421.14	14.705
421.49	14.775
421.84	14.797
422.19	14.849
422.54	14.908
422.89	14.956
423.24	14.994
423.59	15.053
423.94	15.133
424.29	15.238
424.64	15.318
424.99	15.430
425.34	15.516
425.68	15.648
426.03	15.756
426.38	15.857
426.73	15.972
427.08	16.042
427.43	16.125
427.78	16.179
428.13	16.214
428.48	16.283
428.83	16.289
429.18	16.320
429.53	16.356
429.87	16.371
430.22	16.384
430.57	16.415
430.92	16.453
431.27	16.455
431.62	16.480
431.97	16.511
432.32	16.529
432.67	16.566
433.01	16.607
433.36	16.639
433.71	16.680
434.06	16.733
434.41	16.765
434.76	16.822
435.11	16.884
435.45	16.925
435.80	16.929
436.15	16.961
436.50	16.969
436.85	16.973
437.20	16.974
437.54	17.009
437.89	17.015
438.24	17.051
438.59	17.057
438.94	17.063
439.29	17.084
439.63	17.119
439.98	17.147
440.33	17.196
440.68	17.225
441.03	17.270
441.37	17.291
441.72	17.316
442.07	17.334
442.42	17.353
442.76	17.398
443.11	17.416
443.46	17.427
443.81	17.445
444.16	17.471
444.50	17.514
444.85	17.544
445.20	17.593
445.55	17.640
445.89	17.673
446.24	17.754
446.59	17.810
446.94	17.893
447.28	18.008
447.63	18.109
447.98	18.194
448.32	18.293
448.67	18.374
449.02	18.441
449.37	18.528
449.71	18.614
450.06	18.637
450.41	18.670
450.75	18.695
451.10	18.706
451.45	18.715
451.79	18.767
452.14	18.780
452.49	18.802
452.84	18.803
453.18	18.819
453.53	18.834
453.88	18.861
454.22	18.867
454.57	18.867
454.92	18.905
455.26	18.928
455.61	18.931
455.95	18.918
456.30	18.921
456.65	18.940
456.99	18.949
457.34	18.956
457.69	18.983
458.03	19.009
458.38	19.062
458.73	19.112
459.07	19.155
459.42	19.205
459.76	19.300
460.11	19.411
460.46	19.513
460.80	19.611
461.15	19.714
461.49	19.790
461.84	19.919
462.19	20.011
462.53	20.086
462.88	20.163
463.22	20.241
463.57	20.273
463.91	20.332
464.26	20.373
464.61	20.419
464.95	20.493
465.30	20.546
465.64	20.574
465.99	20.621
466.33	20.678
466.68	20.723
467.02	20.771
467.37	20.824
467.71	20.856
468.06	20.910
468.41	20.951
468.75	20.988
469.10	21.060
469.44	21.115
469.79	21.147
470.13	21.176
470.48	21.246
470.82	21.275
471.17	21.309
471.51	21.344
471.86	21.377
472.20	21.384
472.55	21.394
472.89	21.428
473.23	21.437
473.58	21.456
473.92	21.464
474.27	21.453
474.61	21.470
474.96	21.469
475.30	21.485
475.65	21.486
475.99	21.559
476.34	21.597
476.68	21.591
477.02	21.626
477.37	21.639
477.71	21.672
478.06	21.687
478.40	21.720
478.75	21.805
479.09	21.900
479.43	21.994
479.78	22.127
480.12	22.272
480.47	22.429
480.81	22.609
481.15	22.816
481.50	23.002
481.84	23.280
482.19	23.556
482.53	23.764
482.87	23.816
483.22	23.706
483.56	23.430
483.90	23.156
484.25	22.967
484.59	22.870
484.94	22.717
485.28	22.550
485.62	22.298
485.97	22.027
486.31	21.819
486.65	21.764
487.00	21.918
487.34	22.226
487.68	22.544
488.03	22.748
488.37	22.791
488.71	22.887
489.06	22.977
489.40	23.048
489.74	23.114
490.09	23.163
490.43	23.224
490.77	23.288
491.11	23.362
491.46	23.438
491.80	23.515
492.14	23.587
492.49	23.648
492.83	23.707
493.17	23.777
493.51	23.860
493.86	23.950
494.20	24.026
494.54	24.047
494.88	24.092
495.23	24.129
495.57	24.178
495.91	24.257
496.25	24.302
496.60	24.370
496.94	24.450
497.28	24.523
497.62	24.602
497.97	24.666
498.31	24.792
498.65	24.903
498.99	24.995
499.33	25.111
499.68	25.181
500.02	25.280
500.36	25.373
500.70	25.446
501.04	25.538
501.39	25.605
501.73	25.668
502.07	25.708
502.41	25.766
502.75	25.847
503.09	25.864
503.44	25.925
503.78	25.976
504.12	26.034
504.46	26.089
504.80	26.101
505.14	26.153
505.49	26.237
505.83	26.279
506.17	26.311
506.51	26.324
506.85	26.359
507.19	26.389
507.53	26.422
507.87	26.475
508.22	26.504
508.56	26.562
508.90	26.614
509.24	26.641
509.58	26.710
509.92	26.778
510.26	26.872
510.60	26.975
510.94	27.033
511.28	27.102
511.63	27.197
511.97	27.314
512.31	27.397
512.65	27.470
512.99	27.536
513.33	27.615
513.67	27.670
514.01	27.717
514.35	27.752
514.69	27.823
515.03	27.866
515.37	27.858
515.71	27.855
516.05	27.883
516.39	27.897
516.73	27.944
517.07	27.985
517.41	28.027
517.75	28.103
518.09	28.172
518.43	28.247
518.77	28.342
519.11	28.425
519.45	28.530
519.79	28.618
520.13	28.703
520.47	28.800
520.81	28.887
521.15	28.955
521.49	28.975
521.83	28.987
522.17	28.981
522.51	28.943
522.85	28.964
523.19	28.990
523.53	29.063
523.87	29.199
524.21	29.311
524.55	29.413
524.89	29.535
525.23	29.629
525.57	29.753
525.91	29.843
526.25	29.959
526.58	30.048
526.92	30.142
527.26	30.217
527.60	30.231
527.94	30.235
528.28	30.248
528.62	30.230
528.96	30.240
529.30	30.222
529.64	30.237
529.97	30.230
530.31	30.233
530.65	30.214
530.99	30.199
531.33	30.220
531.67	30.272
532.01	30.331
532.35	30.395
532.68	30.457
533.02	30.521
533.36	30.560
533.70	30.624
534.04	30.678
534.38	30.744
534.71	30.820
535.05	30.890
535.39	30.951
535.73	30.984
536.07	31.056
536.41	31.124
536.74	31.155
537.08	31.232
537.42	31.276
537.76	31.338
538.10	31.397
538.43	31.438
538.77	31.500
539.11	31.542
539.45	31.598
539.79	31.624
540.12	31.656
540.46	31.718
540.80	31.724
541.14	31.769
541.47	31.807
541.81	31.841
542.15	31.888
542.49	31.934
542.82	31.983
543.16	32.037
543.50	32.096
543.84	32.153
544.17	32.210
544.51	32.345
544.85	32.425
545.18	32.498
545.52	32.602
545.86	32.701
546.20	32.818
546.53	32.935
546.87	33.043
547.21	33.200
547.54	33.330
547.88	33.478
548.22	33.566
548.55	33.669
548.89	33.758
549.23	33.844
549.56	33.937
549.90	33.983
550.24	34.019
550.57	34.059
550.91	34.135
551.25	34.189
551.58	34.236
551.92	34.281
552.26	34.405
552.59	34.523
552.93	34.621
553.27	34.701
553.60	34.796
553.94	34.932
554.27	35.082
554.61	35.159
554.95	35.289
555.28	35.391
555.62	35.487
555.95	35.539
556.29	35.566
556.63	35.629
556.96	35.683
557.30	35.757
557.63	35.783
557.97	35.761
558.31	35.797
558.64	35.806
558.98	35.850
559.31	35.907
559.65	35.935
559.98	36.018
560.32	36.049
560.65	36.101
560.99	36.121
561.33	36.172
561.66	36.225
562.00	36.254
562.33	36.286
562.67	36.295
563.00	36.305
563.34	36.335
563.67	36.363
564.01	36.387
564.34	36.418
564.68	36.487
565.01	36.499
565.35	36.598
565.68	36.653
566.02	36.674
566.35	36.734
566.69	36.820
567.02	36.864
567.36	36.945
567.69	36.998
568.03	37.026
568.36	37.038
568.69	37.117
569.03	37.089
569.36	37.137
569.70	37.175
570.03	37.218
570.37	37.254
570.70	37.303
571.04	37.284
571.37	37.332
571.70	37.396
572.04	37.434
572.37	37.508
572.71	37.600
573.04	37.653
573.37	37.772
573.71	37.882
574.04	38.006
574.38	38.128
574.71	38.300
575.04	38.456
575.38	38.634
575.71	38.852
576.05	38.969
576.38	39.142
576.71	39.316
577.05	39.483
577.38	39.618
577.71	39.717
578.05	39.842
578.38	39.951
578.71	40.035
579.05	40.096
579.38	40.162
579.71	40.281
580.05	40.320
580.38	40.381
580.71	40.441
581.05	40.526
581.38	40.657
581.71	40.756
582.05	40.835
582.38	40.923
582.71	41.036
583.04	41.120
583.38	41.180
583.71	41.267
584.04	41.319
584.38	41.402
584.71	41.395
585.04	41.361
585.37	41.395
585.71	41.470
586.04	41.515
586.37	41.522
586.70	41.541
587.04	41.590
587.37	41.619
587.70	41.666
588.03	41.684
588.37	41.798
588.70	41.919
589.03	41.942
589.36	41.967
589.69	42.018
590.03	42.041
590.36	42.051
590.69	42.063
591.02	42.154
591.35	42.234
591.69	42.269
592.02	42.246
592.35	42.229
592.68	42.238
593.01	42.197
593.35	42.171
593.68	42.146
594.01	42.137
594.34	42.183
594.67	42.157
595.00	42.119
595.34	42.150
595.67	42.228
596.00	42.272
596.33	42.351
596.66	42.515
596.99	42.652
597.32	42.844
597.65	42.976
597.99	43.072
598.32	43.199
598.65	43.295
598.98	43.378
599.31	43.403
599.64	43.423
599.97	43.503
600.30	43.456
600.63	43.433
600.96	43.363
601.30	43.347
601.63	43.310
601.96	43.310
602.29	43.337
602.62	43.385
602.95	43.420
603.28	43.482
603.61	43.442
603.94	43.490
604.27	43.523
604.60	43.637
604.93	43.783
605.26	43.896
605.59	43.974
605.92	44.060
606.25	44.111
606.58	44.181
606.91	44.227
607.24	44.306
607.57	44.348
607.90	44.429
608.23	44.479
608.56	44.520
608.89	44.605
609.22	44.717
609.55	44.872
609.88	44.937
610.21	45.094
610.54	45.247
610.87	45.414
611.20	45.595
611.53	45.751
611.86	45.931
612.19	46.025
612.52	46.104
612.85	46.162
613.18	46.218
613.51	46.325
613.84	46.376
614.17	46.449
614.49	46.494
614.82	46.580
615.15	46.638
615.48	46.653
615.81	46.758
616.14	46.824
616.47	46.874
616.80	46.947
617.13	47.026
617.46	47.093
617.78	47.128
618.11	47.226
618.44	47.244
618.77	47.323
619.10	47.338
619.43	47.314
619.76	47.348
620.09	47.385
620.41	47.322
620.74	47.302
621.07	47.298
621.40	47.314
621.73	47.257
622.06	47.231
622.38	47.182
622.71	47.151
623.04	47.119
623.37	47.112
623.70	47.112
624.02	47.131
624.35	47.129
624.68	47.117
625.01	47.096
625.34	47.081
625.66	47.073
625.99	47.025
626.32	47.094
626.65	47.190
626.98	47.224
627.30	47.243
627.63	47.323
627.96	47.376
628.29	47.479
628.61	47.564
628.94	47.665
629.27	47.749
629.60	47.869
629.92	47.900
630.25	47.899
630.58	47.910
630.91	47.870
631.23	47.868
631.56	47.896
631.89	47.837
632.21	47.839
632.54	47.814
632.87	47.860
633.19	47.857
633.52	47.818
633.85	47.827
634.18	47.850
634.50	47.950
634.83	47.976
635.16	47.996
635.48	48.039
635.81	48.080
636.14	48.150
636.46	48.178
636.79	48.298
637.11	48.418
637.44	48.479
637.77	48.602
638.09	48.665
638.42	48.709
638.75	48.783
639.07	48.829
639.40	48.856
639.73	48.866
640.05	48.909
640.38	48.852
640.70	48.850
641.03	48.891
641.36	48.869
