OOIBase32 Version 2.0.0.6 Data File
++++++++++++++++++++++++++++++++++++
Date: 01-22-2012, 21:34:13
User: Valued Ocean Optics Customer
Spectrometer Serial Number: USB2E2917
Spectrometer Channel: Master
Integration Time (msec): 4
Spectra Averaged: 10
Boxcar Smoothing: 5
Correct for Electrical Dark: Enabled
Time Normalized: Disabled
Dual-beam Reference: Disabled
Reference Channel: Master
Temperature: Not acquired
Spectrometer Type: S2000
ADC Type: USB2000
Number of Pixels in File: 2048
Graph Title: 
>>>>>Begin Spectral Data<<<<<
180.30	0.000
180.67	0.000
181.03	-48.779
181.40	119.701
181.77	-39.733
182.14	38.811
182.51	888.103
182.88	-22.523
183.25	126.029
183.62	338.347
183.99	75.025
184.36	108.183
184.73	71.526
185.10	-150.904
185.46	144.829
185.83	83.533
186.20	58.752
186.57	336.810
186.94	113.639
187.31	94.281
187.68	1548.942
188.05	560.171
188.42	309.027
188.78	-81.181
189.15	30.293
189.52	30.648
189.89	25.347
190.26	28.275
190.63	20.422
191.00	-17.263
191.37	-15.159
191.73	-13.125
192.10	-46.349
192.47	-72.294
192.84	-265.248
193.21	-480.562
193.58	-409.553
193.94	-295.576
194.31	-92.595
194.68	-48.304
195.05	-41.973
195.42	-51.764
195.79	-63.510
196.15	-32.823
196.52	-8.663
196.89	-5.900
197.26	-12.860
197.63	-20.716
198.00	-7.685
198.36	-41.173
198.73	-8.085
199.10	26.263
199.47	21.357
199.84	34.497
200.20	-9.908
200.57	-15.074
200.94	21.310
201.31	33.721
201.68	33.249
202.04	23.068
202.41	20.070
202.78	17.256
203.15	15.033
203.51	13.946
203.88	3.785
204.25	-1.270
204.62	-4.324
204.98	-6.942
205.35	-29.304
205.72	-59.711
206.09	-103.028
206.46	-80.473
206.82	-124.210
207.19	-131.750
207.56	-156.802
207.92	-145.797
208.29	-57.725
208.66	-50.654
209.03	-73.429
209.39	-36.191
209.76	-27.943
210.13	-15.479
210.50	-15.915
210.86	-35.284
211.23	-53.270
211.60	-74.212
211.96	-93.184
212.33	-228.240
212.70	8461.474
213.07	807.017
213.43	681.063
213.80	1989.592
214.17	341.930
214.53	1844.242
214.90	-188.602
215.27	-83.593
215.63	-103.926
216.00	-75.380
216.37	-26.363
216.74	-16.320
217.10	-14.891
217.47	-22.242
217.84	-22.546
218.20	-17.141
218.57	-12.376
218.94	-40.899
219.30	-35.163
219.67	-29.433
220.04	-24.337
220.40	-27.097
220.77	-24.632
221.13	-28.366
221.50	-14.340
221.87	-11.874
222.23	-15.581
222.60	-21.536
222.97	-13.082
223.33	-22.357
223.70	-24.097
224.07	-21.360
224.43	-18.435
224.80	-12.531
225.16	-12.148
225.53	-11.204
225.90	-9.063
226.26	-5.549
226.63	-4.645
226.99	-4.223
227.36	-1.338
227.73	-0.175
228.09	-0.046
228.46	1.639
228.82	0.562
229.19	2.057
229.56	-0.134
229.92	-0.170
230.29	-0.593
230.65	1.215
231.02	-0.240
231.38	-0.476
231.75	-1.158
232.12	0.011
232.48	-3.098
232.85	-1.244
233.21	-1.637
233.58	0.215
233.94	0.456
234.31	1.323
234.68	-1.150
235.04	2.419
235.41	1.670
235.77	0.770
236.14	-0.696
236.50	3.413
236.87	3.827
237.23	3.768
237.60	2.741
237.96	2.014
238.33	1.168
238.69	2.265
239.06	1.041
239.42	0.241
239.79	0.540
240.15	1.220
240.52	0.365
240.88	0.041
241.25	0.121
241.61	0.136
241.98	0.800
242.34	0.983
242.71	1.186
243.07	1.754
243.44	3.235
243.80	3.622
244.17	2.994
244.53	2.729
244.90	2.989
245.26	3.104
245.63	3.098
245.99	3.011
246.36	2.875
246.72	2.519
247.09	2.263
247.45	1.822
247.81	1.952
248.18	2.343
248.54	2.752
248.91	2.465
249.27	2.339
249.64	2.721
250.00	2.747
250.36	3.415
250.73	3.769
251.09	3.693
251.46	3.214
251.82	2.969
252.19	3.086
252.55	3.269
252.91	3.429
253.28	3.127
253.64	2.884
254.01	2.844
254.37	2.645
254.73	2.682
255.10	2.876
255.46	3.414
255.83	3.445
256.19	3.368
256.55	2.981
256.92	2.718
257.28	2.939
257.65	3.055
258.01	2.862
258.37	2.756
258.74	2.685
259.10	2.766
259.46	2.635
259.83	2.594
260.19	2.645
260.55	2.616
260.92	2.746
261.28	2.589
261.64	2.506
262.01	2.526
262.37	2.406
262.73	2.818
263.10	2.487
263.46	2.664
263.82	2.768
264.19	2.600
264.55	2.790
264.91	2.858
265.28	2.804
265.64	2.659
266.00	2.613
266.37	2.799
266.73	2.466
267.09	2.719
267.46	2.381
267.82	2.152
268.18	2.112
268.54	1.872
268.91	2.143
269.27	2.136
269.63	2.186
270.00	2.369
270.36	2.423
270.72	2.280
271.08	2.325
271.45	2.605
271.81	2.888
272.17	3.148
272.53	3.321
272.90	3.032
273.26	3.101
273.62	3.389
273.98	3.783
274.35	3.631
274.71	3.712
275.07	3.729
275.43	3.740
275.80	3.640
276.16	3.502
276.52	3.410
276.88	3.671
277.25	3.573
277.61	3.639
277.97	3.090
278.33	3.135
278.69	3.169
279.06	2.879
279.42	2.588
279.78	2.424
280.14	2.395
280.50	2.663
280.87	2.526
281.23	2.855
281.59	2.715
281.95	2.850
282.31	2.889
282.68	3.008
283.04	3.122
283.40	3.030
283.76	3.177
284.12	3.108
284.48	3.003
284.85	3.136
285.21	3.144
285.57	3.177
285.93	3.295
286.29	3.095
286.65	3.033
287.02	3.137
287.38	3.375
287.74	3.462
288.10	3.517
288.46	3.400
288.82	3.335
289.18	3.061
289.54	2.960
289.91	2.727
290.27	3.207
290.63	3.377
290.99	3.445
291.35	3.565
291.71	3.337
292.07	3.278
292.43	3.418
292.79	3.618
293.16	3.864
293.52	4.199
293.88	4.455
294.24	4.396
294.60	4.365
294.96	4.294
295.32	4.376
295.68	4.465
296.04	4.611
296.40	4.645
296.76	4.624
297.12	4.829
297.49	4.825
297.85	5.003
298.21	5.208
298.57	5.297
298.93	5.507
299.29	5.582
299.65	6.021
300.01	6.217
300.37	6.435
300.73	6.502
301.09	6.422
301.45	6.342
301.81	6.342
302.17	6.129
302.53	6.087
302.89	6.072
303.25	6.057
303.61	5.917
303.97	5.991
304.33	6.156
304.69	6.414
305.05	6.719
305.41	7.064
305.77	7.095
306.13	7.295
306.49	7.603
306.85	7.740
307.21	7.845
307.57	7.795
307.93	7.712
308.29	7.818
308.65	7.627
309.01	7.423
309.37	7.313
309.73	7.350
310.09	7.284
310.45	7.218
310.81	7.179
311.17	7.094
311.53	7.120
311.89	7.256
312.25	7.093
312.61	7.212
312.96	7.443
313.32	7.475
313.68	7.392
314.04	7.512
314.40	7.454
314.76	7.437
315.12	7.578
315.48	7.633
315.84	7.380
316.20	7.340
316.56	7.349
316.92	7.071
317.27	7.092
317.63	7.134
317.99	7.093
318.35	7.190
318.71	7.330
319.07	7.431
319.43	7.328
319.79	7.367
320.15	7.531
320.50	7.580
320.86	7.740
321.22	7.857
321.58	7.772
321.94	7.746
322.30	7.805
322.66	7.796
323.01	7.680
323.37	7.845
323.73	7.857
324.09	7.928
324.45	7.913
324.81	7.895
325.17	7.781
325.52	7.891
325.88	7.830
326.24	7.678
326.60	7.659
326.96	7.734
327.31	7.605
327.67	7.692
328.03	7.522
328.39	7.379
328.75	7.369
329.11	7.328
329.46	7.308
329.82	7.357
330.18	7.536
330.54	7.536
330.90	7.477
331.25	7.480
331.61	7.457
331.97	7.336
332.33	7.325
332.68	7.311
333.04	7.173
333.40	7.058
333.76	7.018
334.11	6.863
334.47	6.875
334.83	6.803
335.19	6.773
335.54	6.694
335.90	6.645
336.26	6.623
336.62	6.634
336.97	6.704
337.33	6.751
337.69	6.768
338.05	6.848
338.40	6.678
338.76	6.728
339.12	6.731
339.48	6.776
339.83	6.888
340.19	7.049
340.55	7.060
340.90	7.031
341.26	7.031
341.62	7.062
341.97	6.972
342.33	7.019
342.69	7.063
343.04	7.067
343.40	7.139
343.76	7.178
344.12	7.047
344.47	6.980
344.83	6.932
345.19	6.940
345.54	6.846
345.90	6.797
346.26	6.802
346.61	6.681
346.97	6.724
347.32	6.609
347.68	6.577
348.04	6.584
348.39	6.622
348.75	6.667
349.11	6.649
349.46	6.718
349.82	6.765
350.18	6.761
350.53	6.801
350.89	6.691
351.24	6.706
351.60	6.632
351.96	6.670
352.31	6.654
352.67	6.620
353.02	6.638
353.38	6.613
353.74	6.567
354.09	6.512
354.45	6.460
354.80	6.446
355.16	6.513
355.52	6.571
355.87	6.471
356.23	6.436
356.58	6.454
356.94	6.453
357.29	6.427
357.65	6.459
358.00	6.482
358.36	6.430
358.72	6.401
359.07	6.294
359.43	6.251
359.78	6.306
360.14	6.277
360.49	6.271
360.85	6.242
361.20	6.221
361.56	6.144
361.91	6.197
362.27	6.271
362.62	6.336
362.98	6.392
363.33	6.416
363.69	6.391
364.04	6.414
364.40	6.408
364.75	6.376
365.11	6.347
365.46	6.352
365.82	6.235
366.17	6.170
366.53	6.098
366.88	6.049
367.24	6.008
367.59	5.989
367.95	5.940
368.30	5.896
368.66	5.917
369.01	5.948
369.37	5.943
369.72	5.932
370.08	6.008
370.43	5.981
370.78	5.973
371.14	5.938
371.49	5.946
371.85	5.943
372.20	5.952
372.56	5.922
372.91	5.890
373.26	5.916
373.62	5.920
373.97	5.865
374.33	5.883
374.68	5.916
375.03	5.868
375.39	5.775
375.74	5.784
376.10	5.799
376.45	5.788
376.80	5.829
377.16	5.783
377.51	5.799
377.87	5.827
378.22	5.821
378.57	5.792
378.93	5.856
379.28	5.879
379.63	5.854
379.99	5.841
380.34	5.854
380.70	5.851
381.05	5.862
381.40	5.807
381.76	5.735
382.11	5.720
382.46	5.632
382.82	5.554
383.17	5.537
383.52	5.546
383.88	5.534
384.23	5.527
384.58	5.461
384.94	5.458
385.29	5.488
385.64	5.463
385.99	5.459
386.35	5.481
386.70	5.484
387.05	5.501
387.41	5.471
387.76	5.433
388.11	5.327
388.47	5.256
388.82	5.244
389.17	5.252
389.52	5.247
389.88	5.294
390.23	5.323
390.58	5.297
390.93	5.292
391.29	5.307
391.64	5.327
391.99	5.372
392.34	5.459
392.70	5.439
393.05	5.413
393.40	5.452
393.75	5.417
394.11	5.393
394.46	5.407
394.81	5.397
395.16	5.377
395.52	5.340
395.87	5.340
396.22	5.280
396.57	5.255
396.92	5.235
397.28	5.193
397.63	5.150
397.98	5.148
398.33	5.161
398.68	5.160
399.04	5.110
399.39	5.088
399.74	5.097
400.09	5.086
400.44	5.078
400.80	5.060
401.15	5.030
401.50	5.021
401.85	4.997
402.20	4.960
402.55	4.948
402.90	4.947
403.26	4.968
403.61	4.937
403.96	4.918
404.31	4.936
404.66	4.945
405.01	4.958
405.36	4.936
405.72	4.951
406.07	4.930
406.42	4.941
406.77	4.928
407.12	4.902
407.47	4.921
407.82	4.927
408.17	4.897
408.53	4.897
408.88	4.907
409.23	4.906
409.58	4.882
409.93	4.944
410.28	4.923
410.63	4.925
410.98	4.923
411.33	4.911
411.68	4.922
412.03	4.879
412.38	4.866
412.73	4.846
413.09	4.840
413.44	4.813
413.79	4.763
414.14	4.763
414.49	4.752
414.84	4.747
415.19	4.723
415.54	4.688
415.89	4.690
416.24	4.660
416.59	4.649
416.94	4.639
417.29	4.610
417.64	4.594
417.99	4.546
418.34	4.535
418.69	4.512
419.04	4.488
419.39	4.495
419.74	4.496
420.09	4.500
420.44	4.479
420.79	4.465
421.14	4.466
421.49	4.475
421.84	4.472
422.19	4.473
422.54	4.475
422.89	4.482
423.24	4.453
423.59	4.443
423.94	4.435
424.29	4.434
424.64	4.460
424.99	4.493
425.34	4.492
425.68	4.518
426.03	4.513
426.38	4.538
426.73	4.536
427.08	4.549
427.43	4.562
427.78	4.561
428.13	4.546
428.48	4.526
428.83	4.499
429.18	4.465
429.53	4.467
429.87	4.473
430.22	4.435
430.57	4.437
430.92	4.433
431.27	4.426
431.62	4.404
431.97	4.406
432.32	4.375
432.67	4.357
433.01	4.371
433.36	4.366
433.71	4.351
434.06	4.365
434.41	4.361
434.76	4.370
435.11	4.387
435.45	4.397
435.80	4.377
436.15	4.420
436.50	4.412
436.85	4.403
437.20	4.365
437.54	4.362
437.89	4.341
438.24	4.338
438.59	4.335
438.94	4.304
439.29	4.297
439.63	4.306
439.98	4.280
440.33	4.270
440.68	4.260
441.03	4.273
441.37	4.251
441.72	4.261
442.07	4.256
442.42	4.262
442.76	4.265
443.11	4.262
443.46	4.265
443.81	4.251
444.16	4.256
444.50	4.258
444.85	4.264
445.20	4.277
445.55	4.273
445.89	4.262
446.24	4.247
446.59	4.237
446.94	4.231
447.28	4.219
447.63	4.223
447.98	4.216
448.32	4.205
448.67	4.194
449.02	4.169
449.37	4.174
449.71	4.183
450.06	4.195
450.41	4.201
450.75	4.199
451.10	4.208
451.45	4.201
451.79	4.217
452.14	4.224
452.49	4.237
452.84	4.242
453.18	4.223
453.53	4.212
453.88	4.200
454.22	4.186
454.57	4.195
454.92	4.200
455.26	4.186
455.61	4.165
455.95	4.164
456.30	4.151
456.65	4.145
456.99	4.137
457.34	4.125
457.69	4.127
458.03	4.134
458.38	4.128
458.73	4.119
459.07	4.124
459.42	4.124
459.76	4.120
460.11	4.121
460.46	4.124
460.80	4.112
461.15	4.101
461.49	4.072
461.84	4.041
462.19	4.026
462.53	4.015
462.88	3.997
463.22	3.988
463.57	3.979
463.91	3.959
464.26	3.965
464.61	3.983
464.95	4.020
465.30	4.043
465.64	4.052
465.99	4.057
466.33	4.059
466.68	4.067
467.02	4.084
467.37	4.085
467.71	4.071
468.06	4.063
468.41	4.048
468.75	4.027
469.10	4.023
469.44	4.048
469.79	4.042
470.13	4.014
470.48	4.005
470.82	3.989
471.17	3.975
471.51	3.979
471.86	3.980
472.20	3.966
472.55	3.951
472.89	3.938
473.23	3.890
473.58	3.870
473.92	3.866
474.27	3.869
474.61	3.866
474.96	3.863
475.30	3.856
475.65	3.848
475.99	3.849
476.34	3.833
476.68	3.823
477.02	3.833
477.37	3.834
477.71	3.839
478.06	3.820
478.40	3.823
478.75	3.849
479.09	3.888
479.43	3.926
479.78	3.970
480.12	4.015
480.47	4.053
480.81	4.098
481.15	4.148
481.50	4.202
481.84	4.270
482.19	4.331
482.53	4.368
482.87	4.372
483.22	4.334
483.56	4.277
483.90	4.209
484.25	4.160
484.59	4.128
484.94	4.082
485.28	4.021
485.62	3.954
485.97	3.881
486.31	3.823
486.65	3.784
487.00	3.792
487.34	3.823
487.68	3.867
488.03	3.888
488.37	3.874
488.71	3.874
489.06	3.869
489.40	3.857
489.74	3.845
490.09	3.832
490.43	3.830
490.77	3.819
491.11	3.804
491.46	3.794
491.80	3.778
492.14	3.763
492.49	3.734
492.83	3.708
493.17	3.682
493.51	3.670
493.86	3.651
494.20	3.637
494.54	3.623
494.88	3.636
495.23	3.633
495.57	3.617
495.91	3.626
496.25	3.623
496.60	3.630
496.94	3.639
497.28	3.629
497.62	3.614
497.97	3.604
498.31	3.596
498.65	3.572
498.99	3.552
499.33	3.572
499.68	3.550
500.02	3.540
500.36	3.531
500.70	3.510
501.04	3.498
501.39	3.507
501.73	3.498
502.07	3.499
502.41	3.501
502.75	3.500
503.09	3.488
503.44	3.487
503.78	3.485
504.12	3.505
504.46	3.512
504.80	3.515
505.14	3.515
505.49	3.533
505.83	3.553
506.17	3.555
506.51	3.558
506.85	3.556
507.19	3.561
507.53	3.562
507.87	3.555
508.22	3.558
508.56	3.553
508.90	3.551
509.24	3.541
509.58	3.522
509.92	3.512
510.26	3.515
510.60	3.505
510.94	3.501
511.28	3.505
511.63	3.511
511.97	3.494
512.31	3.493
512.65	3.485
512.99	3.481
513.33	3.492
513.67	3.488
514.01	3.499
514.35	3.516
514.69	3.528
515.03	3.534
515.37	3.513
515.71	3.533
516.05	3.536
516.39	3.536
516.73	3.537
517.07	3.536
517.41	3.545
517.75	3.527
518.09	3.503
518.43	3.493
518.77	3.478
519.11	3.475
519.45	3.459
519.79	3.455
520.13	3.451
520.47	3.451
520.81	3.438
521.15	3.424
521.49	3.428
521.83	3.447
522.17	3.431
522.51	3.429
522.85	3.458
523.19	3.481
523.53	3.505
523.87	3.531
524.21	3.569
524.55	3.602
524.89	3.638
525.23	3.663
525.57	3.682
525.91	3.719
526.25	3.736
526.58	3.747
526.92	3.765
527.26	3.776
527.60	3.781
527.94	3.765
528.28	3.750
528.62	3.729
528.96	3.715
529.30	3.703
529.64	3.682
529.97	3.671
530.31	3.651
530.65	3.616
530.99	3.595
531.33	3.582
531.67	3.585
532.01	3.585
532.35	3.585
532.68	3.589
533.02	3.579
533.36	3.572
533.70	3.562
534.04	3.554
534.38	3.551
534.71	3.542
535.05	3.523
535.39	3.500
535.73	3.496
536.07	3.492
536.41	3.487
536.74	3.491
537.08	3.508
537.42	3.528
537.76	3.539
538.10	3.557
538.43	3.580
538.77	3.602
539.11	3.623
539.45	3.628
539.79	3.634
540.12	3.640
540.46	3.641
540.80	3.628
541.14	3.620
541.47	3.613
541.81	3.593
542.15	3.572
542.49	3.547
542.82	3.520
543.16	3.500
543.50	3.489
543.84	3.463
544.17	3.434
544.51	3.417
544.85	3.406
545.18	3.396
545.52	3.388
545.86	3.380
546.20	3.382
546.53	3.361
546.87	3.350
547.21	3.334
547.54	3.329
547.88	3.338
548.22	3.325
548.55	3.307
548.89	3.290
549.23	3.300
549.56	3.292
549.90	3.282
550.24	3.298
550.57	3.311
550.91	3.302
551.25	3.290
551.58	3.283
551.92	3.280
552.26	3.285
552.59	3.288
552.93	3.284
553.27	3.258
553.60	3.258
553.94	3.241
554.27	3.222
554.61	3.214
554.95	3.220
555.28	3.230
555.62	3.232
555.95	3.226
556.29	3.221
556.63	3.222
556.96	3.231
557.30	3.242
557.63	3.252
557.97	3.273
558.31	3.276
558.64	3.276
558.98	3.271
559.31	3.266
559.65	3.264
559.98	3.246
560.32	3.221
560.65	3.218
560.99	3.191
561.33	3.190
561.66	3.174
562.00	3.182
562.33	3.180
562.67	3.177
563.00	3.198
563.34	3.203
563.67	3.236
564.01	3.244
564.34	3.261
564.68	3.274
565.01	3.255
565.35	3.272
565.68	3.267
566.02	3.260
566.35	3.254
566.69	3.225
567.02	3.218
567.36	3.214
567.69	3.199
568.03	3.179
568.36	3.164
568.69	3.199
569.03	3.187
569.36	3.199
569.70	3.199
570.03	3.219
570.37	3.232
570.70	3.243
571.04	3.246
571.37	3.253
571.70	3.250
572.04	3.265
572.37	3.244
572.71	3.253
573.04	3.228
573.37	3.238
573.71	3.220
574.04	3.219
574.38	3.203
574.71	3.186
575.04	3.185
575.38	3.196
575.71	3.184
576.05	3.178
576.38	3.145
576.71	3.147
577.05	3.138
577.38	3.145
577.71	3.147
578.05	3.141
578.38	3.136
578.71	3.131
579.05	3.103
579.38	3.114
579.71	3.105
580.05	3.118
580.38	3.135
580.71	3.112
581.05	3.069
581.38	3.049
581.71	3.031
582.05	3.024
582.38	2.994
582.71	2.991
583.04	2.946
583.38	2.940
583.71	2.925
584.04	2.895
584.38	2.915
584.71	2.927
585.04	2.930
585.37	2.928
585.71	2.920
586.04	2.954
586.37	2.986
586.70	3.001
587.04	3.013
587.37	3.008
587.70	2.999
588.03	2.965
588.37	2.943
588.70	2.927
589.03	2.922
589.36	2.902
589.69	2.858
590.03	2.816
590.36	2.815
590.69	2.769
591.02	2.741
591.35	2.720
591.69	2.708
592.02	2.719
592.35	2.713
592.68	2.692
593.01	2.709
593.35	2.716
593.68	2.684
594.01	2.661
594.34	2.663
594.67	2.644
595.00	2.630
595.34	2.602
595.67	2.570
596.00	2.531
596.33	2.518
596.66	2.454
596.99	2.411
597.32	2.410
597.65	2.362
597.99	2.329
598.32	2.290
598.65	2.243
598.98	2.234
599.31	2.225
599.64	2.220
599.97	2.202
600.30	2.213
600.63	2.236
600.96	2.225
601.30	2.222
601.63	2.227
601.96	2.245
602.29	2.264
602.62	2.259
602.95	2.242
603.28	2.224
603.61	2.201
603.94	2.184
604.27	2.135
604.60	2.131
604.93	2.131
605.26	2.097
605.59	2.086
605.92	2.062
606.25	2.059
606.58	2.033
606.91	2.007
607.24	2.009
607.57	1.989
607.90	1.990
608.23	1.942
608.56	1.911
608.89	1.868
609.22	1.792
609.55	1.738
609.88	1.680
610.21	1.662
610.54	1.624
610.87	1.580
611.20	1.511
611.53	1.447
611.86	1.424
612.19	1.400
612.52	1.390
612.85	1.413
613.18	1.401
613.51	1.353
613.84	1.287
614.17	1.273
614.49	1.269
614.82	1.334
615.15	1.352
615.48	1.347
615.81	1.331
616.14	1.318
616.47	1.295
616.80	1.296
617.13	1.330
617.46	1.357
617.78	1.337
618.11	1.318
618.44	1.296
618.77	1.254
619.10	1.219
619.43	1.231
619.76	1.205
620.09	1.176
620.41	1.178
620.74	1.167
621.07	1.155
621.40	1.159
621.73	1.173
622.06	1.166
622.38	1.215
622.71	1.254
623.04	1.242
623.37	1.296
623.70	1.326
624.02	1.348
624.35	1.357
624.68	1.400
625.01	1.435
625.34	1.444
625.66	1.433
625.99	1.402
626.32	1.374
626.65	1.400
626.98	1.391
627.30	1.384
627.63	1.349
627.96	1.306
628.29	1.232
628.61	1.215
628.94	1.186
629.27	1.152
629.60	1.114
629.92	1.115
630.25	1.056
630.58	1.008
630.91	0.977
631.23	0.947
631.56	0.956
631.89	0.969
632.21	0.980
632.54	0.974
632.87	0.981
633.19	1.008
633.52	0.965
633.85	0.953
634.18	0.961
634.50	0.948
634.83	0.949
635.16	0.928
635.48	0.915
635.81	0.836
636.14	0.777
636.46	0.727
636.79	0.673
637.11	0.700
637.44	0.660
637.77	0.597
638.09	0.571
638.42	0.539
638.75	0.501
639.07	0.455
639.40	0.440
639.73	0.412
640.05	0.388
640.38	0.422
640.70	0.355
641.03	0.352
641.36	0.366
641.68	0.395
642.01	0.429
642.33	0.502
642.66	0.523
642.98	0.515
643.31	0.492
643.64	0.549
643.96	0.555
644.29	0.587
644.61	0.560
644.94	0.587
645.26	0.598
645.59	0.594
645.91	0.560
646.24	0.563
646.56	0.594
646.89	0.665
647.22	0.658
647.54	0.617
647.87	0.608
648.19	0.630
648.52	0.615
648.84	0.571
649.17	0.578
649.49	0.533
649.82	0.551
650.14	0.514
650.47	0.484
650.79	0.476
651.11	0.498
651.44	0.491
651.76	0.510
652.09	0.506
652.41	0.530
652.74	0.482
653.06	0.505
653.39	0.501
653.71	0.586
654.04	0.609
654.36	0.590
654.68	0.600
655.01	0.653
655.33	0.715
655.66	0.745
655.98	0.767
656.30	0.800
656.63	0.812
656.95	0.805
657.28	0.770
657.60	0.780
