OOIBase32 Version 2.0.0.6 Data File
++++++++++++++++++++++++++++++++++++
Date: 01-20-2012, 23:04:25
User: Valued Ocean Optics Customer
Spectrometer Serial Number: USB2E2917
Spectrometer Channel: Master
Integration Time (msec): 3
Spectra Averaged: 10
Boxcar Smoothing: 5
Correct for Electrical Dark: Enabled
Time Normalized: Disabled
Dual-beam Reference: Disabled
Reference Channel: Master
Temperature: Not acquired
Spectrometer Type: S2000
ADC Type: USB2000
Number of Pixels in File: 2048
Graph Title: 
>>>>>Begin Spectral Data<<<<<
180.30	0.000
180.67	0.000
181.03	3.380
181.40	104.447
181.77	103.845
182.14	27.604
182.51	9.059
182.88	194.314
183.25	92.784
183.62	43.773
183.99	-131.983
184.36	169.603
184.73	97.353
185.10	173.355
185.46	-100.915
185.83	4.352
186.20	-84.771
186.57	64.240
186.94	297.499
187.31	40.638
187.68	303.131
188.05	11.071
188.42	28.522
188.78	-1.181
189.15	-21.062
189.52	-25.643
189.89	6.194
190.26	26.772
190.63	29.140
191.00	48.224
191.37	31.985
191.73	44.291
192.10	39.897
192.47	48.676
192.84	27.285
193.21	26.549
193.58	30.459
193.94	14.284
194.31	9.083
194.68	19.222
195.05	28.093
195.42	29.937
195.79	19.112
196.15	20.604
196.52	12.301
196.89	49.460
197.26	52.542
197.63	47.950
198.00	54.503
198.36	52.013
198.73	50.118
199.10	39.627
199.47	28.412
199.84	39.036
200.20	28.311
200.57	25.596
200.94	30.874
201.31	34.906
201.68	41.183
202.04	33.096
202.41	37.490
202.78	35.943
203.15	65.148
203.51	80.481
203.88	63.135
204.25	63.500
204.62	50.245
204.98	33.592
205.35	21.643
205.72	28.977
206.09	54.181
206.46	58.656
206.82	38.697
207.19	24.973
207.56	28.876
207.92	74.006
208.29	104.485
208.66	121.741
209.03	127.465
209.39	91.376
209.76	106.190
210.13	106.464
210.50	121.062
210.86	102.164
211.23	92.336
211.60	60.749
211.96	49.429
212.33	35.391
212.70	16.608
213.07	0.323
213.43	8.109
213.80	-19.545
214.17	-43.799
214.53	-54.961
214.90	-32.903
215.27	-90.912
215.63	-17.070
216.00	-7.089
216.37	16.763
216.74	7.387
217.10	30.224
217.47	38.790
217.84	39.038
218.20	29.663
218.57	32.449
218.94	19.339
219.30	20.531
219.67	4.282
220.04	0.033
220.40	-12.411
220.77	-0.919
221.13	-6.956
221.50	-13.972
221.87	-7.340
222.23	-1.526
222.60	2.451
222.97	10.249
223.33	10.245
223.70	17.757
224.07	13.301
224.43	16.938
224.80	9.304
225.16	3.991
225.53	4.631
225.90	5.952
226.26	4.044
226.63	4.037
226.99	4.239
227.36	7.880
227.73	7.289
228.09	9.266
228.46	8.307
228.82	11.076
229.19	12.616
229.56	13.495
229.92	11.954
230.29	12.395
230.65	9.737
231.02	9.090
231.38	6.910
231.75	5.762
232.12	3.883
232.48	3.259
232.85	3.089
233.21	3.728
233.58	0.178
233.94	3.265
234.31	2.691
234.68	7.986
235.04	7.929
235.41	8.620
235.77	9.456
236.14	10.263
236.50	11.533
236.87	12.274
237.23	11.037
237.60	9.757
237.96	6.998
238.33	8.461
238.69	6.770
239.06	7.245
239.42	6.844
239.79	6.785
240.15	6.336
240.52	6.134
240.88	5.257
241.25	6.236
241.61	7.211
241.98	7.723
242.34	6.999
242.71	7.191
243.07	6.959
243.44	6.602
243.80	6.566
244.17	6.622
244.53	5.902
244.90	5.470
245.26	5.211
245.63	5.011
245.99	4.705
246.36	4.445
246.72	4.437
247.09	4.478
247.45	4.609
247.81	4.604
248.18	4.630
248.54	5.328
248.91	5.607
249.27	5.367
249.64	4.934
250.00	5.027
250.36	5.694
250.73	5.696
251.09	5.335
251.46	5.312
251.82	4.885
252.19	4.583
252.55	4.306
252.91	4.487
253.28	5.224
253.64	6.505
254.01	7.352
254.37	7.198
254.73	7.202
255.10	7.431
255.46	6.522
255.83	6.670
256.19	6.440
256.55	6.263
256.92	6.227
257.28	5.660
257.65	5.297
258.01	4.826
258.37	4.855
258.74	4.591
259.10	4.397
259.46	4.397
259.83	4.218
260.19	4.176
260.55	3.957
260.92	4.248
261.28	4.560
261.64	4.653
262.01	4.997
262.37	4.962
262.73	5.227
263.10	5.560
263.46	6.050
263.82	6.144
264.19	6.274
264.55	5.896
264.91	5.172
265.28	4.660
265.64	4.166
266.00	4.166
266.37	3.772
266.73	3.779
267.09	3.458
267.46	3.404
267.82	3.337
268.18	3.363
268.54	3.625
268.91	3.814
269.27	4.046
269.63	4.225
270.00	4.073
270.36	3.844
270.72	3.695
271.08	4.066
271.45	3.801
271.81	4.036
272.17	3.687
272.53	4.052
272.90	3.516
273.26	3.447
273.62	3.429
273.98	3.435
274.35	3.829
274.71	3.877
275.07	3.465
275.43	3.814
275.80	3.757
276.16	3.975
276.52	3.700
276.88	4.323
277.25	4.355
277.61	4.235
277.97	4.288
278.33	4.191
278.69	4.181
279.06	4.642
279.42	4.434
279.78	4.261
280.14	4.074
280.50	4.177
280.87	4.191
281.23	4.155
281.59	4.409
281.95	4.350
282.31	4.216
282.68	4.202
283.04	3.989
283.40	4.122
283.76	4.166
284.12	4.266
284.48	3.925
284.85	3.568
285.21	3.441
285.57	3.358
285.93	3.425
286.29	3.421
286.65	3.599
287.02	3.319
287.38	3.049
287.74	3.031
288.10	3.234
288.46	3.563
288.82	3.733
289.18	3.922
289.54	3.896
289.91	3.757
290.27	3.681
290.63	3.432
290.99	3.551
291.35	3.900
291.71	3.846
292.07	3.952
292.43	3.846
292.79	3.741
293.16	3.766
293.52	4.013
293.88	4.160
294.24	4.323
294.60	4.543
294.96	4.618
295.32	4.518
295.68	4.523
296.04	4.308
296.40	4.395
296.76	4.502
297.12	4.543
297.49	4.401
297.85	4.301
298.21	4.369
298.57	4.328
298.93	4.496
299.29	4.611
299.65	4.820
300.01	5.028
300.37	4.983
300.73	5.353
301.09	5.311
301.45	5.264
301.81	5.261
302.17	5.374
302.53	5.198
302.89	5.056
303.25	4.822
303.61	4.577
303.97	4.377
304.33	4.376
304.69	4.068
305.05	4.045
305.41	3.955
305.77	3.921
306.13	3.790
306.49	3.864
306.85	3.993
307.21	4.246
307.57	4.376
307.93	4.704
308.29	4.560
308.65	4.539
309.01	4.591
309.37	4.691
309.73	4.639
310.09	4.634
310.45	4.619
310.81	4.561
311.17	4.520
311.53	4.432
311.89	4.270
312.25	4.499
312.61	4.724
312.96	4.843
313.32	5.014
313.68	5.190
314.04	5.336
314.40	5.516
314.76	5.451
315.12	5.264
315.48	5.360
315.84	5.224
316.20	5.144
316.56	4.962
316.92	4.847
317.27	4.699
317.63	4.583
317.99	4.390
318.35	4.114
318.71	4.171
319.07	4.466
319.43	4.536
319.79	4.480
320.15	4.509
320.50	4.408
320.86	4.392
321.22	4.468
321.58	4.640
321.94	4.711
322.30	4.830
322.66	4.813
323.01	4.561
323.37	4.343
323.73	4.344
324.09	4.371
324.45	4.676
324.81	4.633
325.17	4.558
325.52	4.607
325.88	4.676
326.24	4.663
326.60	4.657
326.96	4.748
327.31	4.916
327.67	4.960
328.03	4.970
328.39	4.786
328.75	4.864
329.11	4.773
329.46	4.551
329.82	4.443
330.18	4.434
330.54	4.405
330.90	4.483
331.25	4.496
331.61	4.532
331.97	4.520
332.33	4.485
332.68	4.416
333.04	4.556
333.40	4.697
333.76	4.682
334.11	4.700
334.47	4.696
334.83	4.572
335.19	4.554
335.54	4.545
335.90	4.486
336.26	4.475
336.62	4.397
336.97	4.277
337.33	4.173
337.69	4.185
338.05	4.206
338.40	4.291
338.76	4.440
339.12	4.463
339.48	4.390
339.83	4.332
340.19	4.317
340.55	4.330
340.90	4.348
341.26	4.350
341.62	4.302
341.97	4.261
342.33	4.148
342.69	4.021
343.04	3.985
343.40	3.996
343.76	3.977
344.12	3.976
344.47	4.010
344.83	4.036
345.19	4.084
345.54	4.093
345.90	4.054
346.26	4.098
346.61	4.074
346.97	4.036
347.32	4.067
347.68	4.106
348.04	4.053
348.39	3.975
348.75	3.949
349.11	3.899
349.46	3.961
349.82	3.932
350.18	3.955
350.53	4.006
350.89	4.015
351.24	4.033
351.60	4.083
351.96	4.219
352.31	4.356
352.67	4.400
353.02	4.438
353.38	4.455
353.74	4.569
354.09	4.525
354.45	4.503
354.80	4.454
355.16	4.347
355.52	4.198
355.87	4.031
356.23	3.962
356.58	3.983
356.94	3.978
357.29	3.949
357.65	3.926
358.00	3.950
358.36	3.952
358.72	3.956
359.07	4.025
359.43	4.087
359.78	4.164
360.14	4.211
360.49	4.096
360.85	4.067
361.20	4.056
361.56	4.005
361.91	3.931
362.27	3.964
362.62	3.993
362.98	3.979
363.33	3.977
363.69	4.010
364.04	3.918
364.40	3.971
364.75	4.055
365.11	4.045
365.46	4.054
365.82	4.117
366.17	4.075
366.53	4.092
366.88	4.023
367.24	4.074
367.59	4.023
367.95	4.119
368.30	4.170
368.66	4.089
369.01	4.092
369.37	4.117
369.72	4.068
370.08	4.082
370.43	3.995
370.78	4.079
371.14	4.034
371.49	4.012
371.85	3.904
372.20	3.897
372.56	3.865
372.91	3.873
373.26	3.861
373.62	3.905
373.97	3.886
374.33	3.967
374.68	3.931
375.03	3.973
375.39	4.004
375.74	4.043
376.10	4.012
376.45	4.071
376.80	4.101
377.16	4.124
377.51	4.119
377.87	4.144
378.22	4.069
378.57	4.098
378.93	4.066
379.28	4.056
379.63	4.097
379.99	4.126
380.34	4.048
380.70	4.003
381.05	4.003
381.40	3.977
381.76	3.985
382.11	4.089
382.46	4.144
382.82	4.196
383.17	4.227
383.52	4.180
383.88	4.163
384.23	4.258
384.58	4.267
384.94	4.315
385.29	4.367
385.64	4.353
385.99	4.291
386.35	4.269
386.70	4.225
387.05	4.214
387.41	4.215
387.76	4.217
388.11	4.184
388.47	4.205
388.82	4.202
389.17	4.243
389.52	4.231
389.88	4.277
390.23	4.280
390.58	4.274
390.93	4.279
391.29	4.377
391.64	4.445
391.99	4.512
392.34	4.565
392.70	4.546
393.05	4.570
393.40	4.622
393.75	4.653
394.11	4.697
394.46	4.770
394.81	4.809
395.16	4.773
395.52	4.735
395.87	4.709
396.22	4.684
396.57	4.697
396.92	4.670
397.28	4.718
397.63	4.750
397.98	4.741
398.33	4.776
398.68	4.817
399.04	4.840
399.39	4.887
399.74	4.945
400.09	4.995
400.44	5.094
400.80	5.159
401.15	5.173
401.50	5.197
401.85	5.240
402.20	5.248
402.55	5.279
402.90	5.318
403.26	5.369
403.61	5.378
403.96	5.387
404.31	5.373
404.66	5.389
405.01	5.402
405.36	5.432
405.72	5.441
406.07	5.478
406.42	5.544
406.77	5.570
407.12	5.600
407.47	5.660
407.82	5.738
408.17	5.836
408.53	5.878
408.88	5.947
409.23	5.996
409.58	6.086
409.93	6.140
410.28	6.123
410.63	6.198
410.98	6.252
411.33	6.287
411.68	6.277
412.03	6.260
412.38	6.283
412.73	6.355
413.09	6.436
413.44	6.413
413.79	6.454
414.14	6.494
414.49	6.521
414.84	6.545
415.19	6.591
415.54	6.683
415.89	6.715
416.24	6.766
416.59	6.784
416.94	6.771
417.29	6.815
417.64	6.841
417.99	6.897
418.34	6.912
418.69	6.922
419.04	6.947
419.39	6.957
419.74	6.990
420.09	7.007
420.44	7.021
420.79	7.055
421.14	7.083
421.49	7.104
421.84	7.110
422.19	7.157
422.54	7.194
422.89	7.233
423.24	7.254
423.59	7.288
423.94	7.324
424.29	7.359
424.64	7.373
424.99	7.402
425.34	7.422
425.68	7.467
426.03	7.501
426.38	7.520
426.73	7.522
427.08	7.572
427.43	7.618
427.78	7.662
428.13	7.699
428.48	7.751
428.83	7.781
429.18	7.833
429.53	7.864
429.87	7.875
430.22	7.905
430.57	7.961
430.92	7.964
431.27	7.990
431.62	8.004
431.97	8.057
432.32	8.105
432.67	8.174
433.01	8.197
433.36	8.234
433.71	8.269
434.06	8.327
434.41	8.334
434.76	8.372
435.11	8.387
435.45	8.427
435.80	8.429
436.15	8.469
436.50	8.470
436.85	8.479
437.20	8.481
437.54	8.507
437.89	8.521
438.24	8.533
438.59	8.556
438.94	8.587
439.29	8.595
439.63	8.627
439.98	8.603
440.33	8.598
440.68	8.628
441.03	8.619
441.37	8.642
441.72	8.667
442.07	8.678
442.42	8.696
442.76	8.687
443.11	8.681
443.46	8.665
443.81	8.687
444.16	8.715
444.50	8.704
444.85	8.732
445.20	8.731
445.55	8.710
445.89	8.712
446.24	8.699
446.59	8.679
446.94	8.699
447.28	8.690
447.63	8.672
447.98	8.638
448.32	8.654
448.67	8.635
449.02	8.598
449.37	8.597
449.71	8.593
450.06	8.607
450.41	8.641
450.75	8.628
451.10	8.653
451.45	8.647
451.79	8.661
452.14	8.668
452.49	8.695
452.84	8.716
453.18	8.714
453.53	8.748
453.88	8.746
454.22	8.755
454.57	8.773
454.92	8.805
455.26	8.846
455.61	8.912
455.95	8.956
456.30	9.000
456.65	9.030
456.99	9.069
457.34	9.084
457.69	9.124
458.03	9.147
458.38	9.166
458.73	9.180
459.07	9.211
459.42	9.212
459.76	9.234
460.11	9.246
460.46	9.276
460.80	9.324
461.15	9.351
461.49	9.372
461.84	9.408
462.19	9.458
462.53	9.498
462.88	9.553
463.22	9.593
463.57	9.608
463.91	9.675
464.26	9.715
464.61	9.761
464.95	9.803
465.30	9.862
465.64	9.900
465.99	9.934
466.33	9.974
466.68	9.990
467.02	10.005
467.37	10.036
467.71	10.057
468.06	10.084
468.41	10.095
468.75	10.119
469.10	10.115
469.44	10.122
469.79	10.157
470.13	10.168
470.48	10.180
470.82	10.222
471.17	10.256
471.51	10.259
471.86	10.272
472.20	10.249
472.55	10.284
472.89	10.320
473.23	10.350
473.58	10.321
473.92	10.324
474.27	10.335
474.61	10.323
474.96	10.325
475.30	10.310
475.65	10.329
475.99	10.355
476.34	10.356
476.68	10.341
477.02	10.355
477.37	10.377
477.71	10.396
478.06	10.431
478.40	10.463
478.75	10.498
479.09	10.556
479.43	10.619
479.78	10.699
480.12	10.779
480.47	10.864
480.81	10.921
481.15	10.981
481.50	11.051
481.84	11.110
482.19	11.175
482.53	11.228
482.87	11.272
483.22	11.297
483.56	11.314
483.90	11.313
484.25	11.311
484.59	11.315
484.94	11.321
485.28	11.305
485.62	11.282
485.97	11.271
486.31	11.268
486.65	11.279
487.00	11.300
487.34	11.315
487.68	11.341
488.03	11.367
488.37	11.405
488.71	11.457
489.06	11.491
489.40	11.535
489.74	11.578
490.09	11.619
490.43	11.645
490.77	11.686
491.11	11.747
491.46	11.808
491.80	11.880
492.14	11.935
492.49	11.989
492.83	12.071
493.17	12.172
493.51	12.269
493.86	12.380
494.20	12.497
494.54	12.601
494.88	12.685
495.23	12.784
495.57	12.886
495.91	13.000
496.25	13.122
496.60	13.239
496.94	13.361
497.28	13.488
497.62	13.619
497.97	13.763
498.31	13.924
498.65	14.098
498.99	14.275
499.33	14.414
499.68	14.593
500.02	14.732
500.36	14.950
500.70	15.121
501.04	15.279
501.39	15.447
501.73	15.646
502.07	15.814
502.41	15.998
502.75	16.182
503.09	16.411
503.44	16.604
503.78	16.836
504.12	16.994
504.46	17.241
504.80	17.479
505.14	17.705
505.49	17.894
505.83	18.109
506.17	18.310
506.51	18.513
506.85	18.710
507.19	18.925
507.53	19.101
507.87	19.321
508.22	19.524
508.56	19.725
508.90	19.927
509.24	20.161
509.58	20.371
509.92	20.609
510.26	20.853
510.60	21.094
510.94	21.344
511.28	21.572
511.63	21.789
511.97	21.968
512.31	22.190
512.65	22.423
512.99	22.629
513.33	22.885
513.67	23.122
514.01	23.387
514.35	23.596
514.69	23.767
515.03	24.007
515.37	24.222
515.71	24.424
516.05	24.604
516.39	24.766
516.73	24.922
517.07	25.081
517.41	25.223
517.75	25.338
518.09	25.491
518.43	25.661
518.77	25.804
519.11	25.931
519.45	26.104
519.79	26.290
520.13	26.504
520.47	26.716
520.81	26.867
521.15	27.062
521.49	27.235
521.83	27.420
522.17	27.610
522.51	27.793
522.85	27.980
523.19	28.173
523.53	28.408
523.87	28.678
524.21	28.948
524.55	29.218
524.89	29.461
525.23	29.677
525.57	29.869
525.91	30.037
526.25	30.213
526.58	30.391
526.92	30.534
527.26	30.637
527.60	30.710
527.94	30.781
528.28	30.848
528.62	30.886
528.96	30.948
529.30	31.006
529.64	31.049
529.97	31.073
530.31	31.080
530.65	31.111
530.99	31.178
531.33	31.247
531.67	31.313
532.01	31.353
532.35	31.419
532.68	31.487
533.02	31.537
533.36	31.577
533.70	31.654
534.04	31.729
534.38	31.812
534.71	31.868
535.05	31.920
535.39	31.983
535.73	32.088
536.07	32.192
536.41	32.297
536.74	32.424
537.08	32.577
537.42	32.725
537.76	32.877
538.10	33.036
538.43	33.184
538.77	33.317
539.11	33.425
539.45	33.540
539.79	33.614
540.12	33.678
540.46	33.745
540.80	33.795
541.14	33.821
541.47	33.869
541.81	33.880
542.15	33.905
542.49	33.926
542.82	33.942
543.16	33.940
543.50	33.987
543.84	34.005
544.17	34.026
544.51	34.064
544.85	34.106
545.18	34.148
545.52	34.173
545.86	34.216
546.20	34.249
546.53	34.326
546.87	34.394
547.21	34.431
547.54	34.516
547.88	34.588
548.22	34.691
548.55	34.756
548.89	34.804
549.23	34.894
549.56	34.962
549.90	35.034
550.24	35.113
550.57	35.141
550.91	35.194
551.25	35.250
551.58	35.322
551.92	35.352
552.26	35.386
552.59	35.454
552.93	35.498
553.27	35.502
553.60	35.578
553.94	35.621
554.27	35.683
554.61	35.720
554.95	35.757
555.28	35.773
555.62	35.816
555.95	35.856
556.29	35.855
556.63	35.921
556.96	35.990
557.30	36.034
557.63	36.023
557.97	36.073
558.31	36.176
558.64	36.255
558.98	36.347
559.31	36.376
559.65	36.453
559.98	36.517
560.32	36.578
560.65	36.640
560.99	36.634
561.33	36.697
561.66	36.743
562.00	36.756
562.33	36.807
562.67	36.810
563.00	36.876
563.34	36.897
563.67	36.931
564.01	36.956
564.34	37.024
564.68	37.100
565.01	37.165
565.35	37.258
565.68	37.309
566.02	37.331
566.35	37.392
566.69	37.442
567.02	37.480
567.36	37.525
567.69	37.569
568.03	37.575
568.36	37.590
568.69	37.636
569.03	37.617
569.36	37.680
569.70	37.714
570.03	37.746
570.37	37.781
570.70	37.813
571.04	37.803
571.37	37.828
571.70	37.872
572.04	37.908
572.37	37.921
572.71	37.976
573.04	37.982
573.37	37.993
573.71	38.000
574.04	38.039
574.38	38.081
574.71	38.138
575.04	38.198
575.38	38.215
575.71	38.298
576.05	38.333
576.38	38.385
576.71	38.436
577.05	38.482
577.38	38.486
577.71	38.470
578.05	38.492
578.38	38.522
578.71	38.522
579.05	38.533
579.38	38.523
579.71	38.570
580.05	38.540
580.38	38.522
580.71	38.555
581.05	38.662
581.38	38.749
581.71	38.784
582.05	38.868
582.38	38.886
582.71	38.912
583.04	38.897
583.38	38.889
583.71	38.900
584.04	38.897
584.38	38.874
584.71	38.839
585.04	38.796
585.37	38.838
585.71	38.863
586.04	38.910
586.37	38.947
586.70	39.005
587.04	39.014
587.37	39.083
587.70	39.173
588.03	39.225
588.37	39.233
588.70	39.264
589.03	39.262
589.36	39.211
589.69	39.142
590.03	39.124
590.36	39.116
590.69	39.187
591.02	39.176
591.35	39.145
591.69	39.148
592.02	39.173
592.35	39.128
592.68	39.127
593.01	39.150
593.35	39.227
593.68	39.268
594.01	39.233
594.34	39.179
594.67	39.169
595.00	39.211
595.34	39.231
595.67	39.236
596.00	39.317
596.33	39.355
596.66	39.414
596.99	39.421
597.32	39.426
597.65	39.485
597.99	39.540
598.32	39.569
598.65	39.569
598.98	39.537
599.31	39.578
599.64	39.556
599.97	39.551
600.30	39.497
600.63	39.453
600.96	39.483
601.30	39.435
601.63	39.395
601.96	39.419
602.29	39.426
602.62	39.434
602.95	39.398
603.28	39.428
603.61	39.367
603.94	39.384
604.27	39.414
604.60	39.381
604.93	39.453
605.26	39.498
605.59	39.473
605.92	39.453
606.25	39.417
606.58	39.426
606.91	39.358
607.24	39.378
607.57	39.367
607.90	39.381
608.23	39.336
608.56	39.336
608.89	39.356
609.22	39.334
609.55	39.318
609.88	39.342
610.21	39.348
610.54	39.422
610.87	39.426
611.20	39.431
611.53	39.413
611.86	39.496
612.19	39.459
612.52	39.412
612.85	39.420
613.18	39.435
613.51	39.449
613.84	39.464
614.17	39.428
614.49	39.448
614.82	39.484
615.15	39.461
615.48	39.495
615.81	39.500
616.14	39.446
616.47	39.392
616.80	39.418
617.13	39.406
617.46	39.383
617.78	39.357
618.11	39.305
618.44	39.265
618.77	39.228
619.10	39.222
619.43	39.179
619.76	39.219
620.09	39.233
620.41	39.181
620.74	39.167
621.07	39.154
621.40	39.130
621.73	39.195
622.06	39.164
622.38	39.212
622.71	39.123
623.04	39.146
623.37	39.079
623.70	39.086
624.02	39.112
624.35	39.108
624.68	39.086
625.01	39.085
625.34	39.041
625.66	39.047
625.99	39.016
626.32	39.025
626.65	39.037
626.98	39.054
627.30	39.064
627.63	39.033
627.96	39.015
628.29	39.048
628.61	39.048
628.94	39.046
629.27	39.051
629.60	39.022
629.92	38.988
630.25	38.908
630.58	38.878
630.91	38.840
631.23	38.769
631.56	38.810
631.89	38.763
632.21	38.726
632.54	38.661
632.87	38.627
633.19	38.576
633.52	38.511
633.85	38.485
634.18	38.465
634.50	38.392
634.83	38.373
635.16	38.319
635.48	38.244
635.81	38.219
636.14	38.156
636.46	38.017
636.79	37.982
637.11	37.961
637.44	37.907
637.77	37.838
638.09	37.856
638.42	37.820
638.75	37.806
639.07	37.843
639.40	37.841
639.73	37.841
640.05	37.877
640.38	37.842
640.70	37.796
641.03	37.795
641.36	37.812
641.68	37.815
642.01	37.817
642.33	37.698
642.66	37.645
642.98	37.579
643.31	37.608
643.64	37.596
643.96	37.547
644.29	37.584
644.61	37.609
644.94	37.601
645.26	37.535
645.59	37.476
645.91	37.473
646.24	37.466
646.56	37.397
646.89	37.342
647.22	37.352
647.54	37.406
