OOIBase32 Version 2.0.0.6 Data File
++++++++++++++++++++++++++++++++++++
Date: 01-20-2012, 22:15:56
User: Valued Ocean Optics Customer
Spectrometer Serial Number: USB2E2917
Spectrometer Channel: Master
Integration Time (msec): 4
Spectra Averaged: 10
Boxcar Smoothing: 5
Correct for Electrical Dark: Enabled
Time Normalized: Disabled
Dual-beam Reference: Disabled
Reference Channel: Master
Temperature: Not acquired
Spectrometer Type: S2000
ADC Type: USB2000
Number of Pixels in File: 2048
Graph Title: 
>>>>>Begin Spectral Data<<<<<
180.30	0.000
180.67	0.000
181.03	11.498
181.40	111.271
181.77	116.041
182.14	14264.267
182.51	110.731
182.88	56.483
183.25	144.710
183.62	59.399
183.99	-249.143
184.36	38.601
184.73	29.551
185.10	-228.661
185.46	75.802
185.83	324.412
186.20	-11.285
186.57	172.333
186.94	-182.808
187.31	161.630
187.68	98.722
188.05	34.552
188.42	14.507
188.78	4.048
189.15	-17.467
189.52	12.275
189.89	-5.286
190.26	-9.009
190.63	9.870
191.00	8.642
191.37	10.183
191.73	13.262
192.10	14.065
192.47	24.839
192.84	21.225
193.21	26.969
193.58	19.442
193.94	22.604
194.31	31.239
194.68	19.268
195.05	6.439
195.42	3.905
195.79	5.923
196.15	13.950
196.52	6.711
196.89	11.305
197.26	9.092
197.63	13.494
198.00	19.875
198.36	13.206
198.73	20.749
199.10	25.301
199.47	24.119
199.84	16.283
200.20	16.299
200.57	18.096
200.94	14.309
201.31	12.457
201.68	0.438
202.04	-3.042
202.41	-7.802
202.78	-10.469
203.15	-16.869
203.51	-14.573
203.88	-8.935
204.25	-15.925
204.62	-12.953
204.98	-14.065
205.35	-12.484
205.72	-7.506
206.09	-9.724
206.46	-9.226
206.82	-14.073
207.19	-20.739
207.56	-11.392
207.92	-11.335
208.29	-7.493
208.66	-7.325
209.03	2.639
209.39	-0.907
209.76	-4.804
210.13	-0.484
210.50	5.869
210.86	10.736
211.23	26.715
211.60	20.995
211.96	33.439
212.33	26.578
212.70	23.762
213.07	17.836
213.43	21.213
213.80	24.157
214.17	21.850
214.53	20.737
214.90	10.487
215.27	3.236
215.63	11.200
216.00	7.112
216.37	10.262
216.74	5.407
217.10	2.909
217.47	1.485
217.84	1.833
218.20	5.045
218.57	4.165
218.94	13.160
219.30	10.123
219.67	10.119
220.04	9.680
220.40	11.411
220.77	18.462
221.13	19.455
221.50	19.773
221.87	21.009
222.23	18.443
222.60	16.676
222.97	15.430
223.33	16.969
223.70	13.138
224.07	13.134
224.43	10.710
224.80	9.214
225.16	6.959
225.53	6.281
225.90	5.831
226.26	5.446
226.63	5.862
226.99	5.207
227.36	4.486
227.73	4.927
228.09	4.069
228.46	4.537
228.82	4.262
229.19	4.388
229.56	4.090
229.92	4.125
230.29	3.998
230.65	3.574
231.02	3.661
231.38	4.104
231.75	4.090
232.12	4.073
232.48	4.214
232.85	4.250
233.21	5.650
233.58	5.769
233.94	5.085
234.31	5.181
234.68	4.979
235.04	5.127
235.41	4.815
235.77	4.531
236.14	4.676
236.50	4.258
236.87	4.732
237.23	4.244
237.60	5.142
237.96	5.131
238.33	5.144
238.69	5.492
239.06	5.284
239.42	5.200
239.79	5.245
240.15	4.988
240.52	4.786
240.88	4.787
241.25	4.893
241.61	4.654
241.98	4.747
242.34	4.712
242.71	4.487
243.07	4.382
243.44	4.434
243.80	4.343
244.17	4.753
244.53	4.760
244.90	4.649
245.26	4.512
245.63	4.410
245.99	4.471
246.36	4.488
246.72	4.485
247.09	4.618
247.45	4.663
247.81	4.629
248.18	4.392
248.54	4.392
248.91	4.509
249.27	4.813
249.64	4.777
250.00	4.540
250.36	4.541
250.73	4.280
251.09	4.200
251.46	4.245
251.82	4.285
252.19	4.109
252.55	4.243
252.91	4.140
253.28	3.896
253.64	3.989
254.01	4.526
254.37	4.539
254.73	4.800
255.10	4.685
255.46	4.329
255.83	4.426
256.19	4.466
256.55	4.286
256.92	4.292
257.28	4.154
257.65	3.987
258.01	3.745
258.37	3.668
258.74	3.657
259.10	3.729
259.46	3.822
259.83	3.660
260.19	3.619
260.55	3.535
260.92	3.384
261.28	3.491
261.64	3.717
262.01	3.724
262.37	3.800
262.73	3.851
263.10	3.723
263.46	3.814
263.82	3.985
264.19	4.222
264.55	4.267
264.91	3.916
265.28	3.644
265.64	3.550
266.00	3.676
266.37	3.653
266.73	3.545
267.09	3.678
267.46	3.546
267.82	3.690
268.18	3.421
268.54	3.449
268.91	3.653
269.27	3.745
269.63	3.834
270.00	3.853
270.36	3.878
270.72	3.927
271.08	3.793
271.45	3.879
271.81	3.705
272.17	3.881
272.53	3.998
272.90	4.034
273.26	4.061
273.62	4.079
273.98	4.002
274.35	3.985
274.71	3.818
275.07	3.855
275.43	3.767
275.80	3.970
276.16	3.812
276.52	3.839
276.88	3.941
277.25	3.780
277.61	3.581
277.97	3.610
278.33	3.550
278.69	3.708
279.06	3.674
279.42	3.601
279.78	3.348
280.14	3.323
280.50	3.208
280.87	3.238
281.23	3.280
281.59	3.363
281.95	3.264
282.31	3.248
282.68	3.272
283.04	3.264
283.40	3.255
283.76	3.436
284.12	3.505
284.48	3.592
284.85	3.485
285.21	3.575
285.57	3.651
285.93	3.697
286.29	3.733
286.65	3.702
287.02	3.679
287.38	3.668
287.74	3.543
288.10	3.514
288.46	3.533
288.82	3.683
289.18	3.646
289.54	3.463
289.91	3.425
290.27	3.408
290.63	3.453
290.99	3.697
291.35	3.780
291.71	3.777
292.07	3.868
292.43	3.631
292.79	3.546
293.16	3.634
293.52	3.894
293.88	4.113
294.24	4.151
294.60	4.093
294.96	4.002
295.32	4.062
295.68	4.168
296.04	4.149
296.40	4.317
296.76	4.408
297.12	4.371
297.49	4.366
297.85	4.342
298.21	4.407
298.57	4.508
298.93	4.486
299.29	4.544
299.65	4.598
300.01	4.670
300.37	4.655
300.73	4.774
301.09	4.960
301.45	4.975
301.81	5.051
302.17	5.081
302.53	5.066
302.89	5.084
303.25	5.175
303.61	5.162
303.97	5.193
304.33	5.291
304.69	5.204
305.05	5.207
305.41	5.179
305.77	5.206
306.13	5.258
306.49	5.364
306.85	5.424
307.21	5.409
307.57	5.537
307.93	5.551
308.29	5.545
308.65	5.550
309.01	5.532
309.37	5.528
309.73	5.476
310.09	5.493
310.45	5.447
310.81	5.448
311.17	5.469
311.53	5.378
311.89	5.364
312.25	5.460
312.61	5.504
312.96	5.413
313.32	5.454
313.68	5.491
314.04	5.566
314.40	5.691
314.76	5.766
315.12	5.751
315.48	5.810
315.84	5.952
316.20	5.941
316.56	6.035
316.92	6.194
317.27	6.301
317.63	6.422
317.99	6.427
318.35	6.493
318.71	6.559
319.07	6.722
319.43	6.825
319.79	6.871
320.15	6.960
320.50	7.104
320.86	7.243
321.22	7.449
321.58	7.487
321.94	7.610
322.30	7.713
322.66	7.915
323.01	8.008
323.37	8.096
323.73	8.254
324.09	8.365
324.45	8.551
324.81	8.686
325.17	8.757
325.52	9.012
325.88	9.256
326.24	9.419
326.60	9.581
326.96	9.748
327.31	10.038
327.67	10.172
328.03	10.460
328.39	10.635
328.75	10.799
329.11	10.995
329.46	11.202
329.82	11.343
330.18	11.511
330.54	11.558
330.90	11.725
331.25	11.899
331.61	12.107
331.97	12.212
332.33	12.316
332.68	12.423
333.04	12.461
333.40	12.415
333.76	12.523
334.11	12.646
334.47	12.781
334.83	12.876
335.19	12.866
335.54	12.823
335.90	12.890
336.26	12.967
336.62	13.010
336.97	13.087
337.33	13.180
337.69	13.118
338.05	13.144
338.40	13.218
338.76	13.235
339.12	13.278
339.48	13.378
339.83	13.323
340.19	13.246
340.55	13.274
340.90	13.308
341.26	13.279
341.62	13.333
341.97	13.337
342.33	13.352
342.69	13.329
343.04	13.264
343.40	13.286
343.76	13.361
344.12	13.333
344.47	13.452
344.83	13.454
345.19	13.508
345.54	13.600
345.90	13.618
346.26	13.631
346.61	13.627
346.97	13.688
347.32	13.726
347.68	13.728
348.04	13.749
348.39	13.725
348.75	13.763
349.11	13.788
349.46	13.732
349.82	13.770
350.18	13.779
350.53	13.920
350.89	13.984
351.24	13.971
351.60	13.982
351.96	14.065
352.31	14.041
352.67	14.161
353.02	14.198
353.38	14.148
353.74	14.122
354.09	14.090
354.45	13.977
354.80	13.950
355.16	14.013
355.52	13.962
355.87	13.912
356.23	13.923
356.58	13.817
356.94	13.796
357.29	13.875
357.65	13.925
358.00	13.948
358.36	14.027
358.72	14.039
359.07	14.075
359.43	14.200
359.78	14.289
360.14	14.281
360.49	14.336
360.85	14.423
361.20	14.473
361.56	14.513
361.91	14.580
362.27	14.661
362.62	14.712
362.98	14.731
363.33	14.711
363.69	14.739
364.04	14.834
364.40	14.890
364.75	14.931
365.11	15.000
365.46	15.058
365.82	15.115
366.17	15.153
366.53	15.254
366.88	15.312
367.24	15.367
367.59	15.499
367.95	15.579
368.30	15.643
368.66	15.692
369.01	15.711
369.37	15.712
369.72	15.758
370.08	15.797
370.43	15.874
370.78	15.892
371.14	15.987
371.49	16.005
371.85	16.057
372.20	16.108
372.56	16.196
372.91	16.217
373.26	16.273
373.62	16.367
373.97	16.435
374.33	16.482
374.68	16.591
375.03	16.689
375.39	16.758
375.74	16.784
376.10	16.815
376.45	16.887
376.80	17.078
377.16	17.200
377.51	17.271
377.87	17.362
378.22	17.404
378.57	17.490
378.93	17.587
379.28	17.693
379.63	17.834
379.99	18.014
380.34	18.057
380.70	18.124
381.05	18.205
381.40	18.283
381.76	18.341
382.11	18.501
382.46	18.558
382.82	18.632
383.17	18.687
383.52	18.791
383.88	18.894
384.23	19.031
384.58	19.080
384.94	19.217
385.29	19.310
385.64	19.426
385.99	19.489
386.35	19.631
386.70	19.690
387.05	19.797
387.41	19.842
387.76	19.844
388.11	19.917
388.47	20.000
388.82	20.026
389.17	20.134
389.52	20.218
389.88	20.274
390.23	20.294
390.58	20.348
390.93	20.391
391.29	20.462
391.64	20.573
391.99	20.645
392.34	20.710
392.70	20.792
393.05	20.842
393.40	20.910
393.75	21.001
394.11	21.083
394.46	21.203
394.81	21.287
395.16	21.342
395.52	21.388
395.87	21.463
396.22	21.497
396.57	21.544
396.92	21.582
397.28	21.590
397.63	21.650
397.98	21.671
398.33	21.709
398.68	21.750
399.04	21.771
399.39	21.795
399.74	21.799
400.09	21.872
400.44	21.905
400.80	21.938
401.15	22.001
401.50	21.997
401.85	22.028
402.20	22.031
402.55	22.079
402.90	22.161
403.26	22.201
403.61	22.262
403.96	22.286
404.31	22.309
404.66	22.321
405.01	22.372
405.36	22.417
405.72	22.500
406.07	22.538
406.42	22.547
406.77	22.557
407.12	22.594
407.47	22.609
407.82	22.638
408.17	22.667
408.53	22.697
408.88	22.656
409.23	22.707
409.58	22.698
409.93	22.722
410.28	22.734
410.63	22.758
410.98	22.766
411.33	22.775
411.68	22.792
412.03	22.786
412.38	22.798
412.73	22.809
413.09	22.720
413.44	22.715
413.79	22.642
414.14	22.628
414.49	22.604
414.84	22.587
415.19	22.527
415.54	22.488
415.89	22.451
416.24	22.416
416.59	22.408
416.94	22.403
417.29	22.372
417.64	22.381
417.99	22.366
418.34	22.348
418.69	22.328
419.04	22.334
419.39	22.370
419.74	22.382
420.09	22.395
420.44	22.388
420.79	22.419
421.14	22.428
421.49	22.431
421.84	22.440
422.19	22.450
422.54	22.456
422.89	22.479
423.24	22.465
423.59	22.494
423.94	22.509
424.29	22.535
424.64	22.555
424.99	22.598
425.34	22.649
425.68	22.704
426.03	22.764
426.38	22.869
426.73	22.928
427.08	23.014
427.43	23.042
427.78	23.103
428.13	23.169
428.48	23.210
428.83	23.252
429.18	23.278
429.53	23.290
429.87	23.322
430.22	23.318
430.57	23.364
430.92	23.366
431.27	23.426
431.62	23.441
431.97	23.454
432.32	23.479
432.67	23.492
433.01	23.539
433.36	23.600
433.71	23.636
434.06	23.691
434.41	23.698
434.76	23.733
435.11	23.757
435.45	23.775
435.80	23.807
436.15	23.825
436.50	23.837
436.85	23.821
437.20	23.820
437.54	23.816
437.89	23.832
438.24	23.817
438.59	23.807
438.94	23.807
439.29	23.829
439.63	23.824
439.98	23.845
440.33	23.848
440.68	23.874
441.03	23.886
441.37	23.919
441.72	23.917
442.07	23.971
442.42	24.022
442.76	24.048
443.11	24.090
443.46	24.123
443.81	24.138
444.16	24.173
444.50	24.186
444.85	24.185
445.20	24.163
445.55	24.165
445.89	24.179
446.24	24.171
446.59	24.182
446.94	24.178
447.28	24.193
447.63	24.225
447.98	24.224
448.32	24.262
448.67	24.301
449.02	24.358
449.37	24.435
449.71	24.463
450.06	24.514
450.41	24.547
450.75	24.568
451.10	24.580
451.45	24.600
451.79	24.639
452.14	24.666
452.49	24.718
452.84	24.772
453.18	24.780
453.53	24.790
453.88	24.808
454.22	24.857
454.57	24.918
454.92	24.999
455.26	25.022
455.61	25.078
455.95	25.128
456.30	25.156
456.65	25.202
456.99	25.261
457.34	25.296
457.69	25.348
458.03	25.361
458.38	25.375
458.73	25.406
459.07	25.443
459.42	25.496
459.76	25.537
460.11	25.603
460.46	25.642
460.80	25.665
461.15	25.772
461.49	25.838
461.84	25.931
462.19	26.020
462.53	26.073
462.88	26.189
463.22	26.266
463.57	26.352
463.91	26.428
464.26	26.523
464.61	26.615
464.95	26.673
465.30	26.765
465.64	26.844
465.99	26.918
466.33	27.009
466.68	27.062
467.02	27.111
467.37	27.131
467.71	27.192
468.06	27.222
468.41	27.268
468.75	27.308
469.10	27.358
469.44	27.386
469.79	27.447
470.13	27.495
470.48	27.535
470.82	27.555
471.17	27.592
471.51	27.593
471.86	27.619
472.20	27.678
472.55	27.697
472.89	27.675
473.23	27.696
473.58	27.677
473.92	27.664
474.27	27.661
474.61	27.689
474.96	27.709
475.30	27.739
475.65	27.736
475.99	27.730
476.34	27.765
476.68	27.790
477.02	27.832
477.37	27.856
477.71	27.898
478.06	27.932
478.40	27.990
478.75	28.174
479.09	28.441
479.43	29.008
479.78	29.719
480.12	30.472
480.47	31.239
480.81	32.021
481.15	32.780
481.50	33.542
481.84	34.430
482.19	35.407
482.53	36.341
482.87	37.060
483.22	37.291
483.56	37.081
483.90	36.619
484.25	35.996
484.59	35.255
484.94	34.429
485.28	33.521
485.62	32.455
485.97	31.328
486.31	30.256
486.65	29.432
487.00	28.885
487.34	28.573
487.68	28.512
488.03	28.534
488.37	28.595
488.71	28.719
489.06	28.873
489.40	29.050
489.74	29.229
490.09	29.411
490.43	29.549
490.77	29.672
491.11	29.838
491.46	29.871
491.80	29.917
492.14	29.962
492.49	30.013
492.83	30.065
493.17	30.115
493.51	30.160
493.86	30.220
494.20	30.267
494.54	30.362
494.88	30.457
495.23	30.547
495.57	30.629
495.91	30.704
496.25	30.770
496.60	30.855
496.94	30.958
497.28	31.051
497.62	31.135
497.97	31.213
498.31	31.314
498.65	31.435
498.99	31.554
499.33	31.681
499.68	31.835
500.02	31.976
500.36	32.107
500.70	32.196
501.04	32.305
501.39	32.425
501.73	32.551
502.07	32.652
502.41	32.723
502.75	32.829
503.09	32.953
503.44	33.032
503.78	33.132
504.12	33.222
504.46	33.349
504.80	33.433
505.14	33.502
505.49	33.573
505.83	33.639
506.17	33.722
506.51	33.806
506.85	33.866
507.19	33.919
507.53	33.972
507.87	34.046
508.22	34.102
508.56	34.155
508.90	34.251
509.24	34.335
509.58	34.400
509.92	34.498
510.26	34.569
510.60	34.656
510.94	34.748
511.28	34.838
511.63	34.921
511.97	34.999
512.31	35.086
512.65	35.158
512.99	35.243
513.33	35.376
513.67	35.472
514.01	35.548
514.35	35.646
514.69	35.740
515.03	35.818
515.37	35.884
515.71	35.950
516.05	36.029
516.39	36.103
516.73	36.172
517.07	36.205
517.41	36.246
517.75	36.309
518.09	36.350
518.43	36.387
518.77	36.443
519.11	36.502
519.45	36.572
519.79	36.640
520.13	36.698
520.47	36.774
520.81	36.866
521.15	36.940
521.49	37.008
521.83	37.072
522.17	37.147
522.51	37.203
522.85	37.243
523.19	37.355
523.53	37.564
523.87	37.800
524.21	38.071
524.55	38.423
524.89	38.804
525.23	39.209
525.57	39.595
525.91	39.979
526.25	40.387
526.58	40.791
526.92	41.120
527.26	41.272
527.60	41.174
527.94	40.806
528.28	40.340
528.62	39.896
528.96	39.605
529.30	39.368
529.64	39.099
529.97	38.773
530.31	38.408
530.65	38.085
530.99	37.902
531.33	38.006
531.67	38.422
532.01	38.892
532.35	39.278
532.68	39.417
533.02	39.413
533.36	39.415
533.70	39.435
534.04	39.463
534.38	39.473
534.71	39.482
535.05	39.492
535.39	39.488
535.73	39.490
536.07	39.526
536.41	39.613
536.74	39.733
537.08	39.853
537.42	39.983
537.76	40.118
538.10	40.239
538.43	40.359
538.77	40.483
539.11	40.620
539.45	40.744
539.79	40.860
540.12	40.931
540.46	40.982
540.80	40.999
541.14	41.001
541.47	41.010
541.81	41.050
542.15	41.076
542.49	41.093
542.82	41.069
543.16	41.051
543.50	41.045
543.84	41.039
544.17	41.058
544.51	41.142
544.85	41.217
545.18	41.320
545.52	41.380
545.86	41.452
546.20	41.563
546.53	41.680
546.87	41.804
547.21	41.918
547.54	42.049
547.88	42.226
548.22	42.333
548.55	42.472
548.89	42.562
549.23	42.658
549.56	42.729
549.90	42.778
550.24	42.863
550.57	42.915
550.91	42.964
551.25	43.006
551.58	43.033
551.92	43.124
552.26	43.186
552.59	43.271
552.93	43.373
553.27	43.498
553.60	43.642
553.94	43.725
554.27	43.845
554.61	43.948
554.95	44.064
555.28	44.173
555.62	44.256
555.95	44.366
556.29	44.458
556.63	44.561
556.96	44.692
557.30	44.734
557.63	44.832
557.97	44.933
558.31	45.032
558.64	45.104
558.98	45.202
559.31	45.301
559.65	45.358
559.98	45.430
560.32	45.490
560.65	45.550
560.99	45.644
561.33	45.709
561.66	45.747
562.00	45.803
562.33	45.895
562.67	45.950
563.00	46.002
563.34	46.102
563.67	46.176
564.01	46.239
564.34	46.290
564.68	46.359
565.01	46.448
565.35	46.517
565.68	46.617
566.02	46.673
566.35	46.764
566.69	46.887
567.02	46.967
567.36	47.040
567.69	47.150
568.03	47.245
568.36	47.354
568.69	47.440
569.03	47.547
569.36	47.602
569.70	47.699
570.03	47.800
570.37	47.843
570.70	47.914
571.04	48.024
571.37	48.078
571.70	48.159
572.04	48.245
572.37	48.345
572.71	48.436
573.04	48.554
573.37	48.643
573.71	48.737
574.04	48.878
574.38	48.979
574.71	49.109
575.04	49.308
575.38	49.475
575.71	49.583
576.05	49.729
576.38	49.912
576.71	50.085
577.05	50.298
577.38	50.498
577.71	50.696
578.05	50.901
578.38	51.041
578.71	51.159
579.05	51.301
579.38	51.451
579.71	51.555
580.05	51.658
580.38	51.838
580.71	51.954
581.05	52.019
581.38	52.117
581.71	52.222
582.05	52.342
582.38	52.447
582.71	52.526
583.04	52.678
583.38	52.831
583.71	52.914
584.04	52.958
584.38	53.016
584.71	53.151
585.04	53.174
585.37	53.239
585.71	53.376
586.04	53.444
586.37	53.560
586.70	53.632
587.04	53.670
587.37	53.804
587.70	53.892
588.03	53.958
588.37	54.016
588.70	54.131
589.03	54.246
589.36	54.296
589.69	54.420
590.03	54.515
590.36	54.597
590.69	54.783
591.02	54.879
591.35	54.937
591.69	55.138
592.02	55.213
592.35	55.342
592.68	55.402
593.01	55.429
593.35	55.454
593.68	55.514
594.01	55.558
594.34	55.529
594.67	55.516
595.00	55.567
595.34	55.505
595.67	55.558
596.00	55.593
596.33	55.667
596.66	55.800
596.99	55.923
597.32	56.035
597.65	56.141
597.99	56.269
598.32	56.403
598.65	56.573
598.98	56.735
599.31	56.817
599.64	56.880
599.97	56.949
600.30	56.961
600.63	56.960
600.96	56.929
601.30	56.951
601.63	57.004
601.96	57.044
602.29	57.051
602.62	57.068
602.95	57.166
603.28	57.206
603.61	57.246
603.94	57.303
604.27	57.401
604.60	57.488
604.93	57.583
605.26	57.639
605.59	57.751
605.92	57.853
606.25	57.951
606.58	57.989
606.91	58.071
607.24	58.163
607.57	58.208
607.90	58.262
608.23	58.372
608.56	58.452
608.89	58.546
609.22	58.622
609.55	58.706
609.88	58.790
610.21	58.917
610.54	59.057
610.87	59.228
611.20	59.433
611.53	59.623
611.86	59.681
612.19	59.823
612.52	59.977
612.85	60.101
613.18	60.223
613.51	60.350
613.84	60.382
614.17	60.435
614.49	60.493
614.82	60.483
615.15	60.469
615.48	60.585
615.81	60.608
616.14	60.640
616.47	60.650
616.80	60.683
617.13	60.702
617.46	60.804
617.78	60.884
618.11	60.921
618.44	61.025
618.77	61.110
619.10	61.159
619.43	61.247
619.76	61.269
620.09	61.387
620.41	61.406
620.74	61.479
621.07	61.505
621.40	61.585
621.73	61.604
622.06	61.618
622.38	61.596
622.71	61.594
623.04	61.520
623.37	61.526
623.70	61.470
624.02	61.410
624.35	61.422
624.68	61.386
625.01	61.307
625.34	61.255
625.66	61.266
625.99	61.234
626.32	61.209
626.65	61.252
626.98	61.240
627.30	61.322
627.63	61.387
627.96	61.428
628.29	61.520
628.61	61.588
628.94	61.601
629.27	61.644
629.60	61.764
629.92	61.865
630.25	61.903
630.58	61.918
630.91	61.876
631.23	61.912
631.56	61.906
631.89	61.925
632.21	61.881
632.54	61.961
632.87	61.968
633.19	61.999
633.52	62.023
633.85	62.069
634.18	62.181
634.50	62.189
634.83	62.261
635.16	62.282
635.48	62.298
635.81	62.474
636.14	62.564
636.46	62.682
636.79	62.718
637.11	62.795
637.44	62.819
637.77	62.800
638.09	62.883
638.42	62.921
638.75	63.006
639.07	63.078
