OOIBase32 Version 2.0.0.6 Data File
++++++++++++++++++++++++++++++++++++
Date: 01-20-2012, 22:16:30
User: Valued Ocean Optics Customer
Spectrometer Serial Number: USB2E2917
Spectrometer Channel: Master
Integration Time (msec): 4
Spectra Averaged: 10
Boxcar Smoothing: 5
Correct for Electrical Dark: Enabled
Time Normalized: Disabled
Dual-beam Reference: Disabled
Reference Channel: Master
Temperature: Not acquired
Spectrometer Type: S2000
ADC Type: USB2000
Number of Pixels in File: 2048
Graph Title: 
>>>>>Begin Spectral Data<<<<<
180.30	0.000
180.67	0.000
181.03	-97.085
181.40	202.205
181.77	149.431
182.14	-14087.200
182.51	112.790
182.88	288.703
183.25	78.058
183.62	-17.092
183.99	-387.153
184.36	0.611
184.73	5.245
185.10	-238.445
185.46	65.623
185.83	23.149
186.20	181.832
186.57	155.008
186.94	-89.523
187.31	38.535
187.68	43.842
188.05	64.240
188.42	55.589
188.78	45.751
189.15	10.850
189.52	19.126
189.89	2.273
190.26	7.016
190.63	15.080
191.00	11.354
191.37	0.213
191.73	9.648
192.10	0.204
192.47	-0.629
192.84	-3.355
193.21	12.447
193.58	12.164
193.94	25.935
194.31	33.775
194.68	29.191
195.05	19.717
195.42	17.467
195.79	22.696
196.15	28.982
196.52	27.967
196.89	31.688
197.26	26.294
197.63	18.976
198.00	19.687
198.36	10.888
198.73	7.246
199.10	15.786
199.47	17.169
199.84	9.176
200.20	10.947
200.57	13.700
200.94	14.555
201.31	14.940
201.68	11.768
202.04	10.291
202.41	5.698
202.78	5.224
203.15	-4.097
203.51	-7.026
203.88	-7.424
204.25	-4.278
204.62	-3.967
204.98	-3.407
205.35	-4.366
205.72	-2.803
206.09	-9.892
206.46	-11.605
206.82	-19.088
207.19	-21.397
207.56	-16.384
207.92	-21.901
208.29	-37.510
208.66	-29.411
209.03	-31.928
209.39	-30.135
209.76	-32.628
210.13	-30.323
210.50	-20.236
210.86	-4.087
211.23	4.596
211.60	3.110
211.96	13.251
212.33	17.231
212.70	3.428
213.07	1.318
213.43	-1.218
213.80	6.945
214.17	10.076
214.53	7.642
214.90	-3.737
215.27	-4.278
215.63	-3.450
216.00	-0.185
216.37	-7.177
216.74	-4.522
217.10	-3.133
217.47	-3.578
217.84	-6.165
218.20	-7.417
218.57	-10.672
218.94	-2.603
219.30	-7.320
219.67	-1.591
220.04	-7.957
220.40	-1.991
220.77	1.298
221.13	3.571
221.50	3.850
221.87	5.448
222.23	5.462
222.60	7.281
222.97	4.202
223.33	6.181
223.70	3.194
224.07	5.099
224.43	4.117
224.80	5.734
225.16	4.499
225.53	5.000
225.90	4.954
226.26	4.972
226.63	5.389
226.99	6.247
227.36	5.539
227.73	6.634
228.09	6.584
228.46	6.955
228.82	6.065
229.19	5.881
229.56	5.185
229.92	5.438
230.29	5.403
230.65	5.462
231.02	4.865
231.38	5.092
231.75	3.679
232.12	2.813
232.48	2.471
232.85	2.014
233.21	2.193
233.58	2.420
233.94	1.227
234.31	0.769
234.68	0.194
235.04	0.406
235.41	0.020
235.77	0.229
236.14	0.463
236.50	1.440
236.87	2.331
237.23	3.003
237.60	3.363
237.96	3.649
238.33	3.973
238.69	4.143
239.06	3.964
239.42	4.269
239.79	4.436
240.15	4.364
240.52	4.111
240.88	4.361
241.25	4.263
241.61	4.505
241.98	4.564
242.34	4.551
242.71	4.506
243.07	4.607
243.44	4.754
243.80	4.793
244.17	5.023
244.53	4.854
244.90	4.780
245.26	4.782
245.63	4.663
245.99	4.759
246.36	4.759
246.72	4.790
247.09	4.772
247.45	4.846
247.81	4.821
248.18	4.790
248.54	4.898
248.91	4.735
249.27	4.894
249.64	4.727
250.00	4.558
250.36	4.499
250.73	4.032
251.09	3.705
251.46	3.395
251.82	3.155
252.19	2.699
252.55	2.753
252.91	3.007
253.28	2.663
253.64	2.887
254.01	3.000
254.37	3.064
254.73	3.907
255.10	4.176
255.46	3.938
255.83	4.337
256.19	4.509
256.55	4.495
256.92	4.451
257.28	4.483
257.65	4.398
258.01	4.325
258.37	4.349
258.74	4.213
259.10	4.226
259.46	4.386
259.83	4.247
260.19	4.199
260.55	4.134
260.92	4.079
261.28	4.174
261.64	4.367
262.01	4.288
262.37	4.327
262.73	4.345
263.10	4.264
263.46	4.228
263.82	4.288
264.19	4.573
264.55	4.522
264.91	4.272
265.28	4.222
265.64	4.068
266.00	4.300
266.37	4.165
266.73	4.102
267.09	4.165
267.46	4.177
267.82	4.287
268.18	4.131
268.54	3.977
268.91	4.165
269.27	4.037
269.63	4.151
270.00	4.120
270.36	4.238
270.72	4.320
271.08	4.233
271.45	4.274
271.81	4.136
272.17	4.154
272.53	4.192
272.90	4.179
273.26	4.231
273.62	4.176
273.98	4.062
274.35	3.909
274.71	3.773
275.07	3.877
275.43	3.806
275.80	3.958
276.16	3.723
276.52	3.921
276.88	3.946
277.25	3.794
277.61	3.619
277.97	3.655
278.33	3.562
278.69	3.492
279.06	3.470
279.42	3.417
279.78	3.108
280.14	3.140
280.50	3.044
280.87	2.976
281.23	2.946
281.59	2.994
281.95	2.987
282.31	3.099
282.68	3.181
283.04	3.129
283.40	3.128
283.76	3.279
284.12	3.366
284.48	3.411
284.85	3.370
285.21	3.481
285.57	3.589
285.93	3.564
286.29	3.551
286.65	3.618
287.02	3.699
287.38	3.654
287.74	3.609
288.10	3.540
288.46	3.478
288.82	3.728
289.18	3.798
289.54	3.763
289.91	3.748
290.27	3.755
290.63	3.615
290.99	3.586
291.35	3.674
291.71	3.801
292.07	3.827
292.43	3.780
292.79	3.771
293.16	3.668
293.52	3.729
293.88	3.853
294.24	3.937
294.60	4.017
294.96	4.071
295.32	4.110
295.68	4.122
296.04	4.259
296.40	4.397
296.76	4.459
297.12	4.624
297.49	4.734
297.85	4.876
298.21	4.946
298.57	5.104
298.93	5.142
299.29	5.442
299.65	5.746
300.01	5.877
300.37	6.097
300.73	6.225
301.09	6.393
301.45	6.421
301.81	6.633
302.17	6.878
302.53	6.988
302.89	7.270
303.25	7.362
303.61	7.435
303.97	7.603
304.33	7.688
304.69	7.834
305.05	8.044
305.41	8.323
305.77	8.454
306.13	8.613
306.49	8.830
306.85	8.933
307.21	8.964
307.57	9.100
307.93	9.201
308.29	9.342
308.65	9.388
309.01	9.431
309.37	9.508
309.73	9.574
310.09	9.709
310.45	9.802
310.81	9.895
311.17	10.048
311.53	10.110
311.89	10.242
312.25	10.420
312.61	10.551
312.96	10.606
313.32	10.622
313.68	10.777
314.04	10.881
314.40	10.954
314.76	11.073
315.12	11.140
315.48	11.223
315.84	11.216
316.20	11.169
316.56	11.205
316.92	11.240
317.27	11.391
317.63	11.223
317.99	11.138
318.35	11.181
318.71	11.183
319.07	11.033
319.43	10.983
319.79	10.938
320.15	10.949
320.50	10.929
320.86	10.981
321.22	10.874
321.58	10.927
321.94	10.869
322.30	10.888
322.66	10.886
323.01	10.865
323.37	10.856
323.73	10.913
324.09	10.860
324.45	10.884
324.81	10.877
325.17	10.906
325.52	10.858
325.88	10.915
326.24	10.832
326.60	10.831
326.96	10.896
327.31	10.964
327.67	10.920
328.03	10.958
328.39	10.955
328.75	10.921
329.11	10.865
329.46	10.902
329.82	10.852
330.18	10.797
330.54	10.676
330.90	10.600
331.25	10.529
331.61	10.465
331.97	10.371
332.33	10.293
332.68	10.202
333.04	10.096
333.40	9.946
333.76	9.928
334.11	9.884
334.47	9.876
334.83	9.821
335.19	9.803
335.54	9.859
335.90	9.879
336.26	9.959
336.62	9.926
336.97	10.012
337.33	10.082
337.69	10.033
338.05	10.075
338.40	10.052
338.76	10.127
339.12	10.011
339.48	9.934
339.83	9.891
340.19	9.706
340.55	9.745
340.90	9.670
341.26	9.628
341.62	9.679
341.97	9.631
342.33	9.617
342.69	9.576
343.04	9.552
343.40	9.493
343.76	9.405
344.12	9.371
344.47	9.341
344.83	9.339
345.19	9.360
345.54	9.306
345.90	9.291
346.26	9.283
346.61	9.293
346.97	9.313
347.32	9.412
347.68	9.439
348.04	9.523
348.39	9.496
348.75	9.423
349.11	9.463
349.46	9.385
349.82	9.377
350.18	9.347
350.53	9.355
350.89	9.327
351.24	9.214
351.60	9.191
351.96	9.153
352.31	9.073
352.67	9.115
353.02	8.988
353.38	8.959
353.74	8.936
354.09	8.898
354.45	8.798
354.80	8.735
355.16	8.701
355.52	8.651
355.87	8.541
356.23	8.567
356.58	8.460
356.94	8.361
357.29	8.322
357.65	8.255
358.00	8.213
358.36	8.179
358.72	8.155
359.07	8.123
359.43	8.135
359.78	8.123
360.14	8.054
360.49	8.063
360.85	8.120
361.20	8.091
361.56	8.076
361.91	8.058
362.27	8.018
362.62	7.999
362.98	7.967
363.33	7.932
363.69	7.928
364.04	7.922
364.40	7.923
364.75	7.858
365.11	7.831
365.46	7.777
365.82	7.740
366.17	7.725
366.53	7.687
366.88	7.660
367.24	7.636
367.59	7.620
367.95	7.608
368.30	7.594
368.66	7.609
369.01	7.585
369.37	7.527
369.72	7.472
370.08	7.505
370.43	7.502
370.78	7.495
371.14	7.462
371.49	7.409
371.85	7.379
372.20	7.314
372.56	7.291
372.91	7.244
373.26	7.250
373.62	7.226
373.97	7.165
374.33	7.184
374.68	7.151
375.03	7.134
375.39	7.134
375.74	7.071
376.10	7.012
376.45	6.970
376.80	6.936
377.16	6.939
377.51	6.938
377.87	6.895
378.22	6.823
378.57	6.781
378.93	6.741
379.28	6.722
379.63	6.716
379.99	6.704
380.34	6.660
380.70	6.631
381.05	6.597
381.40	6.557
381.76	6.480
382.11	6.423
382.46	6.396
382.82	6.360
383.17	6.259
383.52	6.255
383.88	6.250
384.23	6.246
384.58	6.241
384.94	6.208
385.29	6.190
385.64	6.219
385.99	6.205
386.35	6.183
386.70	6.171
387.05	6.172
387.41	6.120
387.76	6.069
388.11	6.069
388.47	6.019
388.82	5.957
389.17	5.934
389.52	5.915
389.88	5.889
390.23	5.879
390.58	5.856
390.93	5.854
391.29	5.813
391.64	5.775
391.99	5.716
392.34	5.694
392.70	5.698
393.05	5.670
393.40	5.632
393.75	5.639
394.11	5.591
394.46	5.543
394.81	5.495
395.16	5.455
395.52	5.471
395.87	5.468
396.22	5.420
396.57	5.418
396.92	5.416
397.28	5.389
397.63	5.344
397.98	5.332
398.33	5.307
398.68	5.310
399.04	5.304
399.39	5.261
399.74	5.224
400.09	5.244
400.44	5.187
400.80	5.161
401.15	5.118
401.50	5.071
401.85	5.043
402.20	5.018
402.55	4.995
402.90	5.002
403.26	4.978
403.61	4.934
403.96	4.926
404.31	4.934
404.66	4.900
405.01	4.901
405.36	4.899
405.72	4.893
406.07	4.884
406.42	4.838
406.77	4.803
407.12	4.769
407.47	4.790
407.82	4.772
408.17	4.754
408.53	4.730
408.88	4.726
409.23	4.741
409.58	4.723
409.93	4.711
410.28	4.695
410.63	4.699
410.98	4.711
411.33	4.725
411.68	4.700
412.03	4.686
412.38	4.679
412.73	4.675
413.09	4.594
413.44	4.560
413.79	4.554
414.14	4.573
414.49	4.551
414.84	4.529
415.19	4.471
415.54	4.469
415.89	4.425
416.24	4.406
416.59	4.386
416.94	4.391
417.29	4.399
417.64	4.385
417.99	4.362
418.34	4.351
418.69	4.340
419.04	4.345
419.39	4.341
419.74	4.338
420.09	4.332
420.44	4.326
420.79	4.316
421.14	4.293
421.49	4.286
421.84	4.282
422.19	4.265
422.54	4.280
422.89	4.266
423.24	4.252
423.59	4.261
423.94	4.265
424.29	4.259
424.64	4.272
424.99	4.281
425.34	4.269
425.68	4.271
426.03	4.269
426.38	4.255
426.73	4.261
427.08	4.267
427.43	4.273
427.78	4.264
428.13	4.262
428.48	4.273
428.83	4.273
429.18	4.278
429.53	4.274
429.87	4.282
430.22	4.273
430.57	4.276
430.92	4.266
431.27	4.261
431.62	4.267
431.97	4.266
432.32	4.256
432.67	4.249
433.01	4.256
433.36	4.276
433.71	4.293
434.06	4.293
434.41	4.278
434.76	4.283
435.11	4.285
435.45	4.291
435.80	4.297
436.15	4.301
436.50	4.324
436.85	4.320
437.20	4.314
437.54	4.308
437.89	4.306
438.24	4.317
438.59	4.316
438.94	4.333
439.29	4.343
439.63	4.345
439.98	4.346
440.33	4.352
440.68	4.362
441.03	4.371
441.37	4.393
441.72	4.418
442.07	4.446
442.42	4.444
442.76	4.446
443.11	4.442
443.46	4.458
443.81	4.465
444.16	4.462
444.50	4.478
444.85	4.481
445.20	4.467
445.55	4.466
445.89	4.465
446.24	4.476
446.59	4.467
446.94	4.467
447.28	4.458
447.63	4.455
447.98	4.465
448.32	4.473
448.67	4.462
449.02	4.484
449.37	4.505
449.71	4.481
450.06	4.510
450.41	4.536
450.75	4.560
451.10	4.576
451.45	4.588
451.79	4.568
452.14	4.554
452.49	4.561
452.84	4.556
453.18	4.535
453.53	4.555
453.88	4.534
454.22	4.526
454.57	4.519
454.92	4.507
455.26	4.518
455.61	4.540
455.95	4.557
456.30	4.571
456.65	4.594
456.99	4.603
457.34	4.615
457.69	4.623
458.03	4.635
458.38	4.636
458.73	4.662
459.07	4.666
459.42	4.674
459.76	4.678
460.11	4.684
460.46	4.690
460.80	4.698
461.15	4.700
461.49	4.722
461.84	4.723
462.19	4.754
462.53	4.761
462.88	4.780
463.22	4.802
463.57	4.810
463.91	4.819
464.26	4.820
464.61	4.834
464.95	4.833
465.30	4.824
465.64	4.851
465.99	4.852
466.33	4.855
466.68	4.854
467.02	4.866
467.37	4.865
467.71	4.891
468.06	4.872
468.41	4.864
468.75	4.881
469.10	4.913
469.44	4.900
469.79	4.901
470.13	4.912
470.48	4.913
470.82	4.906
471.17	4.912
471.51	4.883
471.86	4.910
472.20	4.927
472.55	4.933
472.89	4.921
473.23	4.922
473.58	4.909
473.92	4.903
474.27	4.902
474.61	4.890
474.96	4.881
475.30	4.892
475.65	4.896
475.99	4.887
476.34	4.868
476.68	4.861
477.02	4.839
477.37	4.818
477.71	4.802
478.06	4.785
478.40	4.784
478.75	4.804
479.09	4.843
479.43	4.915
479.78	5.032
480.12	5.161
480.47	5.285
480.81	5.426
481.15	5.561
481.50	5.701
481.84	5.858
482.19	6.023
482.53	6.187
482.87	6.295
483.22	6.325
483.56	6.285
483.90	6.196
484.25	6.085
484.59	5.949
484.94	5.806
485.28	5.637
485.62	5.445
485.97	5.243
486.31	5.047
486.65	4.907
487.00	4.818
487.34	4.754
487.68	4.742
488.03	4.746
488.37	4.749
488.71	4.765
489.06	4.788
489.40	4.820
489.74	4.849
490.09	4.876
490.43	4.898
490.77	4.917
491.11	4.947
491.46	4.950
491.80	4.947
492.14	4.961
492.49	4.956
492.83	4.958
493.17	4.958
493.51	4.973
493.86	4.976
494.20	4.987
494.54	4.989
494.88	5.009
495.23	5.029
495.57	5.051
495.91	5.059
496.25	5.086
496.60	5.106
496.94	5.139
497.28	5.168
497.62	5.188
497.97	5.214
498.31	5.255
498.65	5.292
498.99	5.335
499.33	5.367
499.68	5.425
500.02	5.476
500.36	5.509
500.70	5.535
501.04	5.558
501.39	5.611
501.73	5.643
502.07	5.687
502.41	5.722
502.75	5.758
503.09	5.805
503.44	5.844
503.78	5.884
504.12	5.939
504.46	5.990
504.80	6.044
505.14	6.095
505.49	6.151
505.83	6.201
506.17	6.244
506.51	6.295
506.85	6.350
507.19	6.392
507.53	6.419
507.87	6.453
508.22	6.492
508.56	6.528
508.90	6.566
509.24	6.609
509.58	6.650
509.92	6.689
510.26	6.734
510.60	6.751
510.94	6.786
511.28	6.837
511.63	6.896
511.97	6.946
512.31	6.991
512.65	7.041
512.99	7.084
513.33	7.125
513.67	7.174
514.01	7.198
514.35	7.260
514.69	7.303
515.03	7.355
515.37	7.388
515.71	7.431
516.05	7.462
516.39	7.496
516.73	7.515
517.07	7.535
517.41	7.556
517.75	7.575
518.09	7.590
518.43	7.613
518.77	7.609
519.11	7.627
519.45	7.615
519.79	7.628
520.13	7.639
520.47	7.653
520.81	7.678
521.15	7.693
521.49	7.722
521.83	7.744
522.17	7.752
522.51	7.777
522.85	7.770
523.19	7.808
523.53	7.830
523.87	7.857
524.21	7.923
524.55	7.979
524.89	8.043
525.23	8.122
525.57	8.197
525.91	8.265
526.25	8.336
526.58	8.412
526.92	8.465
527.26	8.502
527.60	8.473
527.94	8.372
528.28	8.266
528.62	8.171
528.96	8.087
529.30	8.013
529.64	7.931
529.97	7.847
530.31	7.750
530.65	7.662
530.99	7.594
531.33	7.587
531.67	7.648
532.01	7.711
532.35	7.747
532.68	7.752
533.02	7.731
533.36	7.715
533.70	7.688
534.04	7.675
534.38	7.638
534.71	7.614
535.05	7.594
535.39	7.554
535.73	7.518
536.07	7.497
536.41	7.470
536.74	7.443
537.08	7.428
537.42	7.422
537.76	7.405
538.10	7.423
538.43	7.410
538.77	7.415
539.11	7.426
539.45	7.437
539.79	7.440
540.12	7.437
540.46	7.440
540.80	7.428
541.14	7.403
541.47	7.392
541.81	7.352
542.15	7.339
542.49	7.306
542.82	7.270
543.16	7.231
543.50	7.190
543.84	7.156
544.17	7.119
544.51	7.110
544.85	7.113
545.18	7.092
545.52	7.089
545.86	7.069
546.20	7.066
546.53	7.071
546.87	7.068
547.21	7.075
547.54	7.067
547.88	7.056
548.22	7.038
548.55	7.009
548.89	6.991
549.23	6.972
549.56	6.970
549.90	6.962
550.24	6.951
550.57	6.932
550.91	6.917
551.25	6.889
551.58	6.887
551.92	6.881
552.26	6.890
552.59	6.905
552.93	6.917
553.27	6.903
553.60	6.890
553.94	6.870
554.27	6.873
554.61	6.861
554.95	6.892
555.28	6.895
555.62	6.899
555.95	6.901
556.29	6.910
556.63	6.931
556.96	6.937
557.30	6.948
557.63	6.964
557.97	6.951
558.31	6.959
558.64	6.962
558.98	6.969
559.31	6.964
559.65	6.946
559.98	6.929
560.32	6.904
560.65	6.908
560.99	6.900
561.33	6.925
561.66	6.951
562.00	6.971
562.33	6.998
562.67	6.996
563.00	7.020
563.34	7.034
563.67	7.049
564.01	7.065
564.34	7.078
564.68	7.099
565.01	7.096
565.35	7.099
565.68	7.097
566.02	7.099
566.35	7.086
566.69	7.094
567.02	7.118
567.36	7.136
567.69	7.158
568.03	7.174
568.36	7.181
568.69	7.168
569.03	7.175
569.36	7.187
569.70	7.193
570.03	7.231
570.37	7.244
570.70	7.239
571.04	7.251
571.37	7.257
571.70	7.271
572.04	7.272
572.37	7.292
572.71	7.321
573.04	7.332
573.37	7.331
573.71	7.350
574.04	7.354
574.38	7.365
574.71	7.384
575.04	7.379
575.38	7.366
575.71	7.384
576.05	7.426
576.38	7.432
576.71	7.463
577.05	7.502
577.38	7.520
577.71	7.553
578.05	7.574
578.38	7.571
578.71	7.593
579.05	7.651
579.38	7.678
579.71	7.687
580.05	7.687
580.38	7.700
580.71	7.715
581.05	7.729
581.38	7.753
581.71	7.785
582.05	7.789
582.38	7.797
582.71	7.800
583.04	7.791
583.38	7.790
583.71	7.803
584.04	7.794
584.38	7.799
584.71	7.825
585.04	7.818
585.37	7.850
585.71	7.880
586.04	7.896
586.37	7.926
586.70	7.991
587.04	8.025
587.37	8.063
587.70	8.098
588.03	8.117
588.37	8.124
588.70	8.157
589.03	8.160
589.36	8.168
589.69	8.216
590.03	8.230
590.36	8.241
590.69	8.290
591.02	8.340
591.35	8.394
591.69	8.447
592.02	8.487
592.35	8.516
592.68	8.572
593.01	8.625
593.35	8.658
593.68	8.695
594.01	8.729
594.34	8.742
594.67	8.757
595.00	8.764
595.34	8.787
595.67	8.799
596.00	8.814
596.33	8.848
596.66	8.900
596.99	8.940
597.32	8.985
597.65	9.007
597.99	9.047
598.32	9.087
598.65	9.125
598.98	9.139
599.31	9.197
599.64	9.249
599.97	9.261
600.30	9.299
600.63	9.343
600.96	9.342
601.30	9.370
601.63	9.394
601.96	9.432
602.29	9.478
602.62	9.502
602.95	9.517
603.28	9.536
603.61	9.561
603.94	9.560
604.27	9.555
604.60	9.574
604.93	9.580
605.26	9.594
605.59	9.611
605.92	9.608
606.25	9.637
606.58	9.655
606.91	9.675
607.24	9.691
607.57	9.740
607.90	9.779
608.23	9.808
608.56	9.837
608.89	9.854
609.22	9.845
609.55	9.865
609.88	9.872
610.21	9.864
610.54	9.864
610.87	9.869
611.20	9.867
611.53	9.847
611.86	9.825
612.19	9.837
612.52	9.856
612.85	9.864
613.18	9.879
613.51	9.892
613.84	9.919
614.17	9.918
614.49	9.918
614.82	9.876
615.15	9.895
615.48	9.919
615.81	9.898
616.14	9.876
616.47	9.864
616.80	9.821
617.13	9.827
617.46	9.837
617.78	9.877
618.11	9.914
618.44	9.925
618.77	9.906
619.10	9.895
619.43	9.924
619.76	9.936
620.09	9.948
620.41	9.967
620.74	9.955
621.07	9.947
621.40	9.930
621.73	9.909
622.06	9.935
622.38	9.947
622.71	10.002
623.04	9.984
623.37	9.991
623.70	10.017
624.02	10.001
624.35	10.036
624.68	10.048
625.01	10.050
625.34	10.077
625.66	10.058
625.99	10.066
626.32	10.047
626.65	10.035
626.98	10.027
627.30	9.990
627.63	10.003
627.96	9.991
628.29	10.021
628.61	10.032
628.94	10.001
629.27	10.007
629.60	9.987
629.92	9.956
630.25	9.964
630.58	9.940
630.91	9.942
631.23	9.941
631.56	9.903
631.89	9.872
632.21	9.823
632.54	9.801
632.87	9.801
633.19	9.796
633.52	9.838
633.85	9.852
634.18	9.865
634.50	9.839
634.83	9.857
635.16	9.855
635.48	9.826
635.81	9.818
636.14	9.832
636.46	9.817
636.79	9.816
637.11	9.774
637.44	9.741
637.77	9.721
638.09	9.795
638.42	9.801
638.75	9.780
639.07	9.770
639.40	9.808
639.73	9.789
640.05	9.769
640.38	9.791
640.70	9.753
641.03	9.759
641.36	9.792
641.68	9.738
642.01	9.674
642.33	9.664
642.66	9.655
642.98	9.631
643.31	9.627
643.64	9.652
643.96	9.626
644.29	9.638
644.61	9.621
644.94	9.565
645.26	9.613
645.59	9.637
645.91	9.684
646.24	9.691
646.56	9.731
646.89	9.720
647.22	9.716
647.54	9.732
647.87	9.734
648.19	9.729
648.52	9.743
648.84	9.728
649.17	9.727
649.49	9.741
649.82	9.762
650.14	9.734
650.47	9.771
650.79	9.777
651.11	9.763
651.44	9.766
651.76	9.770
652.09	9.795
652.41	9.764
652.74	9.746
653.06	9.684
653.39	9.601
653.71	9.614
654.04	9.565
654.36	9.537
654.68	9.541
655.01	9.551
655.33	9.550
655.66	9.530
655.98	9.497
656.30	9.495
656.63	9.519
656.95	9.532
657.28	9.507
657.60	9.490
657.92	9.464
658.25	9.462
658.57	9.423
