OOIBase32 Version 2.0.0.6 Data File
++++++++++++++++++++++++++++++++++++
Date: 01-22-2012, 21:27:13
User: Valued Ocean Optics Customer
Spectrometer Serial Number: USB2E2917
Spectrometer Channel: Master
Integration Time (msec): 4
Spectra Averaged: 10
Boxcar Smoothing: 5
Correct for Electrical Dark: Enabled
Time Normalized: Disabled
Dual-beam Reference: Disabled
Reference Channel: Master
Temperature: Not acquired
Spectrometer Type: S2000
ADC Type: USB2000
Number of Pixels in File: 2048
Graph Title: 
>>>>>Begin Spectral Data<<<<<
180.30	0.000
180.67	0.000
181.03	26.076
181.40	125.130
181.77	-92.973
182.14	-9.685
182.51	44.364
182.88	98.556
183.25	58.089
183.62	187.537
183.99	-16.598
184.36	193.215
184.73	-119.049
185.10	466.754
185.46	-48.555
185.83	79.660
186.20	188.535
186.57	391.199
186.94	66.841
187.31	87.937
187.68	1552.994
188.05	968.754
188.42	460.841
188.78	-88.081
189.15	-4.194
189.52	29.056
189.89	34.647
190.26	32.347
190.63	40.891
191.00	17.441
191.37	-14.339
191.73	-20.024
192.10	-18.532
192.47	-49.035
192.84	-282.851
193.21	-318.252
193.58	-362.346
193.94	-379.090
194.31	-142.870
194.68	-45.227
195.05	-34.547
195.42	-31.527
195.79	-20.383
196.15	1.285
196.52	23.036
196.89	47.073
197.26	26.889
197.63	30.626
198.00	91.692
198.36	114.318
198.73	164.866
199.10	119.867
199.47	75.214
199.84	48.558
200.20	27.348
200.57	-5.054
200.94	-11.910
201.31	0.812
201.68	2.798
202.04	9.785
202.41	6.400
202.78	8.346
203.15	4.921
203.51	7.527
203.88	8.284
204.25	6.054
204.62	17.901
204.98	20.406
205.35	5.089
205.72	-9.754
206.09	-65.150
206.46	-45.173
206.82	-80.600
207.19	-76.800
207.56	-88.125
207.92	-93.696
208.29	-70.242
208.66	-58.053
209.03	-37.797
209.39	-5.487
209.76	-0.004
210.13	11.505
210.50	19.263
210.86	6.123
211.23	-32.414
211.60	-54.625
211.96	-66.886
212.33	-158.830
212.70	5668.071
213.07	678.189
213.43	664.517
213.80	2245.322
214.17	385.560
214.53	1878.487
214.90	-229.063
215.27	-88.679
215.63	-155.261
216.00	-91.964
216.37	-27.898
216.74	-22.963
217.10	-10.889
217.47	-6.471
217.84	0.712
218.20	7.658
218.57	10.853
218.94	12.099
219.30	13.496
219.67	21.275
220.04	18.997
220.40	25.650
220.77	30.300
221.13	24.456
221.50	28.660
221.87	33.214
222.23	29.068
222.60	19.622
222.97	8.366
223.33	2.245
223.70	-3.034
224.07	-3.913
224.43	-7.273
224.80	-2.832
225.16	-1.260
225.53	-1.299
225.90	-2.465
226.26	-1.551
226.63	-2.116
226.99	-0.216
227.36	0.791
227.73	2.411
228.09	4.256
228.46	5.576
228.82	4.771
229.19	5.206
229.56	3.172
229.92	3.155
230.29	2.912
230.65	4.914
231.02	3.623
231.38	3.017
231.75	0.201
232.12	-1.018
232.48	-2.624
232.85	-2.405
233.21	-2.216
233.58	1.019
233.94	0.407
234.31	1.515
234.68	0.099
235.04	1.928
235.41	3.152
235.77	5.130
236.14	4.996
236.50	6.110
236.87	6.528
237.23	4.813
237.60	2.279
237.96	2.202
238.33	1.379
238.69	1.929
239.06	1.677
239.42	1.179
239.79	1.255
240.15	1.946
240.52	1.731
240.88	1.030
241.25	1.389
241.61	1.423
241.98	1.915
242.34	1.990
242.71	1.926
243.07	2.431
243.44	3.054
243.80	3.258
244.17	2.579
244.53	2.206
244.90	2.565
245.26	2.760
245.63	2.916
245.99	2.924
246.36	3.120
246.72	3.028
247.09	2.601
247.45	2.391
247.81	2.314
248.18	2.418
248.54	2.683
248.91	2.463
249.27	2.060
249.64	2.461
250.00	2.613
250.36	2.528
250.73	2.426
251.09	2.290
251.46	1.698
251.82	1.711
252.19	1.668
252.55	1.379
252.91	1.768
253.28	2.010
253.64	1.528
254.01	0.803
254.37	0.956
254.73	1.284
255.10	1.419
255.46	2.197
255.83	2.439
256.19	2.697
256.55	2.886
256.92	2.843
257.28	2.917
257.65	3.121
258.01	3.085
258.37	3.046
258.74	3.165
259.10	3.459
259.46	3.343
259.83	3.237
260.19	3.384
260.55	3.408
260.92	3.131
261.28	3.063
261.64	2.657
262.01	2.981
262.37	2.811
262.73	2.721
263.10	2.302
263.46	2.327
263.82	1.990
264.19	1.309
264.55	1.208
264.91	1.643
265.28	1.797
265.64	1.789
266.00	1.690
266.37	2.127
266.73	2.294
267.09	2.251
267.46	2.105
267.82	2.275
268.18	2.458
268.54	2.519
268.91	2.536
269.27	2.354
269.63	2.552
270.00	2.438
270.36	2.124
270.72	1.744
271.08	1.776
271.45	1.700
271.81	1.939
272.17	2.357
272.53	2.587
272.90	2.433
273.26	2.627
273.62	2.607
273.98	2.857
274.35	2.852
274.71	2.844
275.07	3.006
275.43	3.406
275.80	3.400
276.16	3.182
276.52	2.783
276.88	2.819
277.25	2.337
277.61	2.499
277.97	2.212
278.33	2.307
278.69	2.414
279.06	2.144
279.42	2.021
279.78	1.757
280.14	1.579
280.50	1.738
280.87	1.949
281.23	2.268
281.59	2.105
281.95	2.206
282.31	2.005
282.68	2.114
283.04	2.029
283.40	1.829
283.76	1.918
284.12	2.040
284.48	2.209
284.85	2.078
285.21	2.133
285.57	2.219
285.93	2.306
286.29	2.468
286.65	2.492
287.02	2.866
287.38	3.087
287.74	3.225
288.10	3.203
288.46	2.890
288.82	2.825
289.18	2.641
289.54	2.467
289.91	2.410
290.27	2.492
290.63	2.531
290.99	2.339
291.35	2.265
291.71	2.041
292.07	1.996
292.43	2.196
292.79	2.349
293.16	2.623
293.52	2.763
293.88	2.749
294.24	2.573
294.60	2.620
294.96	2.620
295.32	2.642
295.68	2.626
296.04	2.571
296.40	2.448
296.76	2.468
297.12	2.598
297.49	2.734
297.85	2.846
298.21	2.974
298.57	2.910
298.93	3.170
299.29	3.332
299.65	3.585
300.01	3.613
300.37	3.790
300.73	3.899
301.09	3.742
301.45	3.534
301.81	3.534
302.17	3.536
302.53	3.473
302.89	3.311
303.25	3.151
303.61	3.144
303.97	3.253
304.33	3.359
304.69	3.535
305.05	3.537
305.41	3.857
305.77	3.879
306.13	3.925
306.49	4.134
306.85	4.269
307.21	4.207
307.57	4.084
307.93	4.078
308.29	3.975
308.65	3.717
309.01	3.801
309.37	3.714
309.73	3.795
310.09	3.705
310.45	3.570
310.81	3.472
311.17	3.517
311.53	3.568
311.89	3.561
312.25	3.654
312.61	3.733
312.96	3.643
313.32	3.613
313.68	3.349
314.04	3.429
314.40	3.465
314.76	3.526
315.12	3.562
315.48	3.613
315.84	3.423
316.20	3.188
316.56	3.149
316.92	3.181
317.27	3.231
317.63	3.328
317.99	3.260
318.35	3.273
318.71	3.284
319.07	3.334
319.43	3.256
319.79	3.489
320.15	3.654
320.50	3.854
320.86	3.936
321.22	3.922
321.58	3.898
321.94	3.983
322.30	4.169
322.66	4.178
323.01	4.143
323.37	4.336
323.73	4.233
324.09	4.294
324.45	4.089
324.81	4.107
325.17	4.089
325.52	4.186
325.88	4.146
326.24	3.922
326.60	3.926
326.96	4.012
327.31	3.789
327.67	3.878
328.03	3.777
328.39	3.884
328.75	3.899
329.11	3.951
329.46	3.976
329.82	3.967
330.18	4.083
330.54	4.015
330.90	3.977
331.25	4.041
331.61	4.074
331.97	4.083
332.33	4.017
332.68	4.018
333.04	4.054
333.40	4.005
333.76	4.094
334.11	4.045
334.47	4.189
334.83	4.086
335.19	4.116
335.54	4.055
335.90	4.088
336.26	4.040
336.62	3.980
336.97	3.880
337.33	3.905
337.69	3.866
338.05	3.961
338.40	3.838
338.76	3.921
339.12	3.899
339.48	3.831
339.83	3.840
340.19	3.857
340.55	3.893
340.90	3.868
341.26	3.918
341.62	3.890
341.97	3.845
342.33	3.916
342.69	3.950
343.04	3.938
343.40	3.970
343.76	3.965
344.12	4.062
344.47	4.017
344.83	4.124
345.19	4.137
345.54	4.168
345.90	4.089
346.26	4.048
346.61	3.946
346.97	4.003
347.32	4.074
347.68	4.140
348.04	4.106
348.39	4.093
348.75	4.014
349.11	3.919
349.46	3.944
349.82	4.001
350.18	4.018
350.53	4.065
350.89	4.044
351.24	4.047
351.60	3.939
351.96	3.946
352.31	3.985
352.67	3.990
353.02	4.013
353.38	4.003
353.74	4.058
354.09	4.046
354.45	4.010
354.80	3.996
355.16	3.987
355.52	4.025
355.87	4.016
356.23	4.031
356.58	4.057
356.94	4.072
357.29	3.995
357.65	3.899
358.00	3.893
358.36	3.936
358.72	3.934
359.07	3.857
359.43	3.875
359.78	3.879
360.14	3.854
360.49	3.837
360.85	3.831
361.20	3.895
361.56	3.912
361.91	3.903
362.27	3.901
362.62	3.975
362.98	4.056
363.33	4.034
363.69	4.051
364.04	4.049
364.40	4.102
364.75	4.084
365.11	4.090
365.46	4.107
365.82	4.099
366.17	4.094
366.53	4.000
366.88	3.978
367.24	3.998
367.59	3.986
367.95	3.943
368.30	3.905
368.66	3.945
369.01	3.934
369.37	3.936
369.72	3.957
370.08	3.952
370.43	3.982
370.78	4.041
371.14	3.991
371.49	3.967
371.85	4.027
372.20	4.015
372.56	4.007
372.91	4.027
373.26	4.051
373.62	4.006
373.97	4.050
374.33	4.065
374.68	4.052
375.03	4.089
375.39	4.049
375.74	4.041
376.10	4.050
376.45	4.034
376.80	4.025
377.16	3.985
377.51	4.025
377.87	4.072
378.22	4.081
378.57	4.032
378.93	4.019
379.28	4.073
379.63	4.101
379.99	4.111
380.34	4.162
380.70	4.209
381.05	4.253
381.40	4.243
381.76	4.239
382.11	4.198
382.46	4.252
382.82	4.250
383.17	4.276
383.52	4.264
383.88	4.312
384.23	4.303
384.58	4.282
384.94	4.268
385.29	4.324
385.64	4.278
385.99	4.290
386.35	4.270
386.70	4.304
387.05	4.302
387.41	4.344
387.76	4.306
388.11	4.302
388.47	4.298
388.82	4.279
389.17	4.284
389.52	4.307
389.88	4.362
390.23	4.372
390.58	4.357
390.93	4.378
391.29	4.398
391.64	4.406
391.99	4.400
392.34	4.398
392.70	4.470
393.05	4.452
393.40	4.438
393.75	4.432
394.11	4.434
394.46	4.466
394.81	4.445
395.16	4.432
395.52	4.468
395.87	4.450
396.22	4.456
396.57	4.475
396.92	4.486
397.28	4.506
397.63	4.489
397.98	4.551
398.33	4.603
398.68	4.645
399.04	4.649
399.39	4.647
399.74	4.706
400.09	4.747
400.44	4.733
400.80	4.734
401.15	4.720
401.50	4.767
401.85	4.773
402.20	4.771
402.55	4.787
402.90	4.804
403.26	4.844
403.61	4.856
403.96	4.874
404.31	4.918
404.66	4.975
405.01	5.027
405.36	5.045
405.72	5.074
406.07	5.074
406.42	5.127
406.77	5.127
407.12	5.135
407.47	5.171
407.82	5.184
408.17	5.164
408.53	5.182
408.88	5.246
409.23	5.233
409.58	5.238
409.93	5.265
410.28	5.251
410.63	5.276
410.98	5.295
411.33	5.280
411.68	5.311
412.03	5.312
412.38	5.342
412.73	5.324
413.09	5.328
413.44	5.289
413.79	5.300
414.14	5.317
414.49	5.326
414.84	5.332
415.19	5.359
415.54	5.335
415.89	5.341
416.24	5.324
416.59	5.324
416.94	5.357
417.29	5.378
417.64	5.393
417.99	5.394
418.34	5.390
418.69	5.386
419.04	5.382
419.39	5.413
419.74	5.444
420.09	5.449
420.44	5.442
420.79	5.447
421.14	5.463
421.49	5.478
421.84	5.475
422.19	5.502
422.54	5.520
422.89	5.521
423.24	5.517
423.59	5.519
423.94	5.561
424.29	5.605
424.64	5.639
424.99	5.692
425.34	5.707
425.68	5.747
426.03	5.790
426.38	5.830
426.73	5.894
427.08	5.926
427.43	5.976
427.78	5.970
428.13	5.983
428.48	6.002
428.83	5.979
429.18	5.990
429.53	6.029
429.87	6.031
430.22	6.050
430.57	6.058
430.92	6.072
431.27	6.064
431.62	6.051
431.97	6.064
432.32	6.055
432.67	6.089
433.01	6.120
433.36	6.121
433.71	6.120
434.06	6.130
434.41	6.171
434.76	6.202
435.11	6.260
435.45	6.298
435.80	6.299
436.15	6.313
436.50	6.307
436.85	6.311
437.20	6.311
437.54	6.334
437.89	6.342
438.24	6.317
438.59	6.320
438.94	6.295
439.29	6.306
439.63	6.308
439.98	6.318
440.33	6.330
440.68	6.341
441.03	6.361
441.37	6.372
441.72	6.388
442.07	6.425
442.42	6.436
442.76	6.471
443.11	6.474
443.46	6.489
443.81	6.514
444.16	6.534
444.50	6.559
444.85	6.578
445.20	6.600
445.55	6.617
445.89	6.614
446.24	6.628
446.59	6.638
446.94	6.679
447.28	6.713
447.63	6.718
447.98	6.729
448.32	6.726
448.67	6.725
449.02	6.726
449.37	6.743
449.71	6.773
450.06	6.809
450.41	6.822
450.75	6.823
451.10	6.842
451.45	6.855
451.79	6.888
452.14	6.906
452.49	6.939
452.84	6.944
453.18	6.934
453.53	6.935
453.88	6.918
454.22	6.910
454.57	6.909
454.92	6.918
455.26	6.919
455.61	6.915
455.95	6.914
456.30	6.905
456.65	6.909
456.99	6.913
457.34	6.930
457.69	6.940
458.03	6.956
458.38	6.984
458.73	6.994
459.07	7.016
459.42	7.020
459.76	7.043
460.11	7.077
460.46	7.111
460.80	7.126
461.15	7.142
461.49	7.171
461.84	7.191
462.19	7.186
462.53	7.187
462.88	7.201
463.22	7.219
463.57	7.225
463.91	7.230
464.26	7.245
464.61	7.282
464.95	7.303
465.30	7.320
465.64	7.328
465.99	7.347
466.33	7.384
466.68	7.382
467.02	7.396
467.37	7.407
467.71	7.407
468.06	7.415
468.41	7.407
468.75	7.414
469.10	7.424
469.44	7.440
469.79	7.448
470.13	7.445
470.48	7.481
470.82	7.515
471.17	7.524
471.51	7.538
471.86	7.562
472.20	7.579
472.55	7.588
472.89	7.593
473.23	7.592
473.58	7.588
473.92	7.569
474.27	7.557
474.61	7.542
474.96	7.539
475.30	7.548
475.65	7.547
475.99	7.549
476.34	7.542
476.68	7.556
477.02	7.572
477.37	7.591
477.71	7.627
478.06	7.632
478.40	7.633
478.75	7.678
479.09	7.699
479.43	7.738
479.78	7.804
480.12	7.864
480.47	7.927
480.81	7.996
481.15	8.076
481.50	8.152
481.84	8.255
482.19	8.365
482.53	8.429
482.87	8.456
483.22	8.418
483.56	8.316
483.90	8.210
484.25	8.134
484.59	8.097
484.94	8.030
485.28	7.961
485.62	7.869
485.97	7.761
486.31	7.686
486.65	7.653
487.00	7.690
487.34	7.792
487.68	7.902
488.03	7.956
488.37	7.960
488.71	7.981
489.06	7.989
489.40	8.003
489.74	8.014
490.09	8.032
490.43	8.039
490.77	8.050
491.11	8.061
491.46	8.075
491.80	8.093
492.14	8.096
492.49	8.104
492.83	8.109
493.17	8.124
493.51	8.127
493.86	8.126
494.20	8.148
494.54	8.140
494.88	8.155
495.23	8.151
495.57	8.172
495.91	8.187
496.25	8.196
496.60	8.215
496.94	8.228
497.28	8.250
497.62	8.256
497.97	8.286
498.31	8.319
498.65	8.322
498.99	8.364
499.33	8.377
499.68	8.386
500.02	8.424
500.36	8.451
500.70	8.470
501.04	8.511
501.39	8.552
501.73	8.559
502.07	8.576
502.41	8.611
502.75	8.613
503.09	8.630
503.44	8.651
503.78	8.668
504.12	8.684
504.46	8.698
504.80	8.699
505.14	8.703
505.49	8.709
505.83	8.714
506.17	8.720
506.51	8.751
506.85	8.760
507.19	8.792
507.53	8.798
507.87	8.808
508.22	8.832
508.56	8.862
508.90	8.882
509.24	8.913
509.58	8.949
509.92	8.951
510.26	8.957
510.60	8.978
510.94	9.006
511.28	9.041
511.63	9.072
511.97	9.098
512.31	9.107
512.65	9.144
512.99	9.176
513.33	9.204
513.67	9.236
514.01	9.259
514.35	9.272
514.69	9.286
515.03	9.318
515.37	9.334
515.71	9.340
516.05	9.350
516.39	9.344
516.73	9.353
517.07	9.364
517.41	9.390
517.75	9.415
518.09	9.440
518.43	9.456
518.77	9.456
519.11	9.454
519.45	9.461
519.79	9.480
520.13	9.516
520.47	9.524
520.81	9.562
521.15	9.590
521.49	9.610
521.83	9.624
522.17	9.629
522.51	9.637
522.85	9.675
523.19	9.716
523.53	9.769
523.87	9.809
524.21	9.860
524.55	9.912
524.89	9.967
525.23	10.028
525.57	10.087
525.91	10.133
526.25	10.189
526.58	10.229
526.92	10.271
527.26	10.295
527.60	10.318
527.94	10.333
528.28	10.337
528.62	10.341
528.96	10.341
529.30	10.338
529.64	10.345
529.97	10.336
530.31	10.335
530.65	10.316
530.99	10.322
531.33	10.334
531.67	10.365
532.01	10.385
532.35	10.396
532.68	10.414
533.02	10.440
533.36	10.454
533.70	10.475
534.04	10.499
534.38	10.522
534.71	10.544
535.05	10.561
535.39	10.554
535.73	10.573
536.07	10.597
536.41	10.612
536.74	10.626
537.08	10.662
537.42	10.699
537.76	10.736
538.10	10.778
538.43	10.792
538.77	10.821
539.11	10.870
539.45	10.893
539.79	10.909
540.12	10.926
540.46	10.947
540.80	10.954
541.14	10.964
541.47	10.983
541.81	10.993
542.15	11.019
542.49	11.037
542.82	11.036
543.16	11.055
543.50	11.087
543.84	11.120
544.17	11.126
544.51	11.158
544.85	11.181
545.18	11.182
545.52	11.216
545.86	11.250
546.20	11.264
546.53	11.294
546.87	11.323
547.21	11.359
547.54	11.377
547.88	11.433
548.22	11.462
548.55	11.482
548.89	11.500
549.23	11.518
549.56	11.528
549.90	11.566
550.24	11.583
550.57	11.591
550.91	11.617
551.25	11.646
551.58	11.659
551.92	11.666
552.26	11.701
552.59	11.756
552.93	11.807
553.27	11.826
553.60	11.843
553.94	11.906
554.27	11.954
554.61	11.966
554.95	12.005
555.28	12.031
555.62	12.062
555.95	12.091
556.29	12.102
556.63	12.120
556.96	12.171
557.30	12.211
557.63	12.228
557.97	12.239
558.31	12.248
558.64	12.257
558.98	12.297
559.31	12.339
559.65	12.359
559.98	12.372
560.32	12.371
560.65	12.361
560.99	12.357
561.33	12.347
561.66	12.362
562.00	12.374
562.33	12.410
562.67	12.403
563.00	12.402
563.34	12.425
563.67	12.464
564.01	12.486
564.34	12.501
564.68	12.527
565.01	12.547
565.35	12.577
565.68	12.603
566.02	12.609
566.35	12.628
566.69	12.637
567.02	12.639
567.36	12.654
567.69	12.649
568.03	12.667
568.36	12.653
568.69	12.696
569.03	12.711
569.36	12.731
569.70	12.727
570.03	12.745
570.37	12.760
570.70	12.783
571.04	12.803
571.37	12.832
571.70	12.852
572.04	12.900
572.37	12.897
572.71	12.918
573.04	12.927
573.37	12.953
573.71	12.985
574.04	13.007
574.38	13.020
574.71	13.012
575.04	13.056
575.38	13.068
575.71	13.084
576.05	13.112
576.38	13.126
576.71	13.155
577.05	13.196
577.38	13.204
577.71	13.255
578.05	13.276
578.38	13.342
578.71	13.345
579.05	13.370
579.38	13.423
579.71	13.426
580.05	13.425
580.38	13.470
580.71	13.458
581.05	13.477
581.38	13.494
581.71	13.504
582.05	13.483
582.38	13.478
582.71	13.497
583.04	13.472
583.38	13.477
583.71	13.486
584.04	13.473
584.38	13.470
584.71	13.466
585.04	13.463
585.37	13.482
585.71	13.499
586.04	13.485
586.37	13.486
586.70	13.480
587.04	13.494
587.37	13.492
587.70	13.463
588.03	13.484
588.37	13.506
588.70	13.511
589.03	13.503
589.36	13.498
589.69	13.516
590.03	13.515
590.36	13.524
590.69	13.483
591.02	13.465
591.35	13.481
591.69	13.445
592.02	13.383
592.35	13.351
592.68	13.305
593.01	13.295
593.35	13.281
593.68	13.255
594.01	13.220
594.34	13.255
594.67	13.236
595.00	13.212
595.34	13.213
595.67	13.219
596.00	13.190
596.33	13.181
596.66	13.167
596.99	13.153
597.32	13.148
597.65	13.136
597.99	13.084
598.32	13.087
598.65	13.073
598.98	13.054
599.31	13.049
599.64	13.074
599.97	13.096
600.30	13.035
600.63	12.985
600.96	12.984
601.30	12.987
601.63	12.974
601.96	12.966
602.29	12.947
602.62	12.944
602.95	12.933
603.28	12.903
603.61	12.870
603.94	12.867
604.27	12.890
604.60	12.909
604.93	12.909
605.26	12.930
605.59	12.950
605.92	12.956
606.25	12.973
606.58	12.967
606.91	12.940
607.24	12.939
607.57	12.960
607.90	12.949
608.23	12.899
608.56	12.889
608.89	12.874
609.22	12.823
609.55	12.805
609.88	12.752
610.21	12.748
610.54	12.741
610.87	12.709
611.20	12.677
611.53	12.675
611.86	12.712
612.19	12.676
612.52	12.617
612.85	12.622
613.18	12.632
613.51	12.611
613.84	12.571
614.17	12.589
614.49	12.561
614.82	12.584
615.15	12.566
615.48	12.511
615.81	12.512
616.14	12.532
616.47	12.533
616.80	12.517
617.13	12.523
617.46	12.502
617.78	12.436
618.11	12.511
618.44	12.522
618.77	12.504
619.10	12.446
619.43	12.433
619.76	12.409
620.09	12.387
620.41	12.357
620.74	12.367
621.07	12.386
621.40	12.443
621.73	12.432
622.06	12.418
622.38	12.431
622.71	12.465
623.04	12.492
623.37	12.517
623.70	12.508
624.02	12.496
624.35	12.449
624.68	12.465
625.01	12.472
625.34	12.411
625.66	12.402
625.99	12.356
626.32	12.355
626.65	12.345
626.98	12.320
627.30	12.319
627.63	12.337
627.96	12.353
628.29	12.335
628.61	12.287
628.94	12.280
629.27	12.232
629.60	12.237
629.92	12.221
630.25	12.170
630.58	12.132
630.91	12.087
631.23	12.029
631.56	12.023
631.89	12.005
632.21	12.035
632.54	12.036
632.87	12.032
633.19	12.062
633.52	12.067
633.85	12.066
634.18	12.080
634.50	12.105
634.83	12.144
635.16	12.123
635.48	12.121
635.81	12.061
636.14	12.017
636.46	11.970
636.79	11.915
637.11	11.871
637.44	11.831
637.77	11.804
638.09	11.768
638.42	11.714
638.75	11.723
639.07	11.656
639.40	11.615
639.73	11.595
640.05	11.561
640.38	11.507
640.70	11.504
641.03	11.478
641.36	11.458
641.68	11.432
642.01	11.476
642.33	11.490
642.66	11.483
642.98	11.536
643.31	11.493
643.64	11.557
643.96	11.616
644.29	11.617
644.61	11.640
644.94	11.637
645.26	11.689
645.59	11.678
645.91	11.640
646.24	11.670
646.56	11.644
646.89	11.706
647.22	11.698
647.54	11.656
647.87	11.647
648.19	11.617
648.52	11.647
648.84	11.559
649.17	11.539
649.49	11.491
649.82	11.472
650.14	11.463
650.47	11.445
