OOIBase32 Version 2.0.0.6 Data File
++++++++++++++++++++++++++++++++++++
Date: 01-22-2012, 21:28:41
User: Valued Ocean Optics Customer
Spectrometer Serial Number: USB2E2917
Spectrometer Channel: Master
Integration Time (msec): 4
Spectra Averaged: 10
Boxcar Smoothing: 5
Correct for Electrical Dark: Enabled
Time Normalized: Disabled
Dual-beam Reference: Disabled
Reference Channel: Master
Temperature: Not acquired
Spectrometer Type: S2000
ADC Type: USB2000
Number of Pixels in File: 2048
Graph Title: 
>>>>>Begin Spectral Data<<<<<
180.30	0.000
180.67	0.000
181.03	29.418
181.40	-45.364
181.77	16.949
182.14	49.008
182.51	-62.655
182.88	17.363
183.25	0.553
183.62	289.322
183.99	-15.465
184.36	203.034
184.73	-94.831
185.10	1264.501
185.46	127.855
185.83	10.607
186.20	-40.195
186.57	331.294
186.94	61.112
187.31	-25.111
187.68	1487.303
188.05	-260.929
188.42	-78.299
188.78	261.864
189.15	138.046
189.52	96.664
189.89	91.567
190.26	79.873
190.63	61.987
191.00	61.820
191.37	41.379
191.73	43.631
192.10	10.545
192.47	-56.357
192.84	-298.046
193.21	-577.846
193.58	-492.842
193.94	-529.767
194.31	-224.067
194.68	-78.248
195.05	-92.127
195.42	-121.418
195.79	-100.334
196.15	-49.974
196.52	-6.928
196.89	-17.398
197.26	-22.021
197.63	-47.884
198.00	-37.148
198.36	-146.887
198.73	-287.304
199.10	-134.134
199.47	-19.194
199.84	-14.583
200.20	-60.811
200.57	-56.313
200.94	-6.958
201.31	17.281
201.68	22.399
202.04	23.914
202.41	23.857
202.78	30.530
203.15	29.533
203.51	21.160
203.88	15.874
204.25	2.405
204.62	-0.009
204.98	-1.542
205.35	-31.421
205.72	-42.037
206.09	-89.814
206.46	-49.365
206.82	-88.839
207.19	-84.203
207.56	-67.651
207.92	-35.788
208.29	15.027
208.66	21.169
209.03	-2.927
209.39	13.844
209.76	7.080
210.13	26.766
210.50	44.303
210.86	43.456
211.23	26.213
211.60	-12.779
211.96	-39.830
212.33	-95.931
212.70	3501.768
213.07	315.666
213.43	230.358
213.80	769.730
214.17	180.766
214.53	1232.092
214.90	-78.251
215.27	-13.830
215.63	-45.693
216.00	-22.042
216.37	-12.411
216.74	-18.395
217.10	-17.426
217.47	-29.104
217.84	-34.345
218.20	-31.502
218.57	-21.721
218.94	-45.285
219.30	-33.191
219.67	-10.354
220.04	-6.494
220.40	1.298
220.77	9.733
221.13	17.956
221.50	23.197
221.87	26.644
222.23	24.496
222.60	17.883
222.97	10.107
223.33	-2.770
223.70	-16.177
224.07	-14.288
224.43	-13.544
224.80	-8.589
225.16	-11.338
225.53	-9.338
225.90	-8.410
226.26	-5.747
226.63	-5.996
226.99	-3.195
227.36	-0.694
227.73	2.186
228.09	0.531
228.46	0.822
228.82	-0.261
229.19	2.012
229.56	-0.442
229.92	0.683
230.29	-0.547
230.65	2.371
231.02	1.334
231.38	2.002
231.75	0.702
232.12	3.016
232.48	0.943
232.85	3.304
233.21	2.003
233.58	5.757
233.94	4.684
234.31	5.306
234.68	3.293
235.04	6.319
235.41	4.966
235.77	5.089
236.14	5.365
236.50	7.818
236.87	7.252
237.23	7.262
237.60	4.344
237.96	3.598
238.33	3.177
238.69	3.228
239.06	1.371
239.42	0.829
239.79	0.908
240.15	1.077
240.52	0.846
240.88	0.168
241.25	-0.452
241.61	-0.510
241.98	0.345
242.34	0.492
242.71	0.670
243.07	0.982
243.44	1.357
243.80	1.597
244.17	0.980
244.53	0.332
244.90	0.509
245.26	0.966
245.63	1.041
245.99	0.690
246.36	0.658
246.72	0.554
247.09	0.329
247.45	0.385
247.81	0.240
248.18	0.414
248.54	1.381
248.91	1.137
249.27	1.119
249.64	1.701
250.00	2.002
250.36	2.113
250.73	1.565
251.09	1.282
251.46	0.668
251.82	0.644
252.19	0.760
252.55	-0.043
252.91	0.548
253.28	0.018
253.64	-0.063
254.01	-0.229
254.37	0.059
254.73	0.658
255.10	1.083
255.46	1.906
255.83	1.569
256.19	1.522
256.55	1.704
256.92	1.667
257.28	1.683
257.65	1.514
258.01	1.371
258.37	1.281
258.74	1.257
259.10	1.383
259.46	1.273
259.83	1.504
260.19	1.540
260.55	1.421
260.92	1.272
261.28	1.451
261.64	1.368
262.01	1.077
262.37	0.576
262.73	0.635
263.10	0.253
263.46	0.248
263.82	-0.178
264.19	-0.125
264.55	-0.000
264.91	0.365
265.28	0.308
265.64	0.329
266.00	0.638
266.37	1.316
266.73	1.294
267.09	1.505
267.46	1.218
267.82	1.676
268.18	1.598
268.54	1.472
268.91	1.260
269.27	1.032
269.63	1.075
270.00	0.938
270.36	0.639
270.72	0.406
271.08	0.325
271.45	0.520
271.81	0.431
272.17	0.543
272.53	0.930
272.90	0.973
273.26	0.963
273.62	0.998
273.98	1.315
274.35	1.636
274.71	1.808
275.07	2.027
275.43	2.082
275.80	2.111
276.16	2.076
276.52	1.780
276.88	1.632
277.25	1.655
277.61	1.903
277.97	1.675
278.33	1.472
278.69	1.627
279.06	1.209
279.42	0.964
279.78	0.872
280.14	0.797
280.50	0.894
280.87	1.073
281.23	0.985
281.59	0.892
281.95	1.030
282.31	0.867
282.68	0.761
283.04	0.809
283.40	0.723
283.76	0.773
284.12	0.812
284.48	0.627
284.85	0.503
285.21	0.704
285.57	0.661
285.93	0.721
286.29	0.669
286.65	0.640
287.02	0.819
287.38	0.878
287.74	0.881
288.10	0.897
288.46	0.831
288.82	0.794
289.18	0.577
289.54	0.446
289.91	0.239
290.27	0.490
290.63	0.585
290.99	0.607
291.35	0.809
291.71	0.589
292.07	0.365
292.43	0.558
292.79	0.595
293.16	0.789
293.52	0.868
293.88	0.992
294.24	0.951
294.60	0.999
294.96	1.020
295.32	1.017
295.68	1.094
296.04	1.381
296.40	1.265
296.76	1.284
297.12	1.262
297.49	1.334
297.85	1.689
298.21	1.743
298.57	1.646
298.93	1.691
299.29	1.773
299.65	2.063
300.01	1.947
300.37	2.132
300.73	2.372
301.09	2.575
301.45	2.569
301.81	2.391
302.17	2.437
302.53	2.627
302.89	2.616
303.25	2.445
303.61	2.295
303.97	2.454
304.33	2.654
304.69	2.753
305.05	2.777
305.41	2.942
305.77	2.871
306.13	2.934
306.49	2.891
306.85	3.018
307.21	3.078
307.57	3.056
307.93	2.948
308.29	2.883
308.65	2.634
309.01	2.607
309.37	2.627
309.73	2.654
310.09	2.555
310.45	2.519
310.81	2.373
311.17	2.381
311.53	2.396
311.89	2.467
312.25	2.363
312.61	2.440
312.96	2.484
313.32	2.469
313.68	2.307
314.04	2.401
314.40	2.483
314.76	2.579
315.12	2.697
315.48	2.775
315.84	2.554
316.20	2.502
316.56	2.600
316.92	2.432
317.27	2.322
317.63	2.392
317.99	2.279
318.35	2.334
318.71	2.355
319.07	2.429
319.43	2.311
319.79	2.506
320.15	2.617
320.50	2.777
320.86	2.874
321.22	2.870
321.58	2.802
321.94	2.844
322.30	2.932
322.66	2.954
323.01	2.863
323.37	3.047
323.73	2.955
324.09	3.044
324.45	2.865
324.81	2.866
325.17	2.903
325.52	3.039
325.88	2.987
326.24	2.886
326.60	2.774
326.96	2.836
327.31	2.705
327.67	2.758
328.03	2.662
328.39	2.521
328.75	2.561
329.11	2.528
329.46	2.443
329.82	2.499
330.18	2.452
330.54	2.494
330.90	2.441
331.25	2.446
331.61	2.399
331.97	2.384
332.33	2.488
332.68	2.481
333.04	2.576
333.40	2.564
333.76	2.628
334.11	2.659
334.47	2.727
334.83	2.661
335.19	2.591
335.54	2.563
335.90	2.481
336.26	2.393
336.62	2.376
336.97	2.298
337.33	2.342
337.69	2.262
338.05	2.333
338.40	2.295
338.76	2.378
339.12	2.509
339.48	2.502
339.83	2.530
340.19	2.625
340.55	2.570
340.90	2.505
341.26	2.463
341.62	2.439
341.97	2.415
342.33	2.444
342.69	2.419
343.04	2.289
343.40	2.394
343.76	2.367
344.12	2.312
344.47	2.300
344.83	2.405
345.19	2.415
345.54	2.443
345.90	2.357
346.26	2.323
346.61	2.249
346.97	2.382
347.32	2.375
347.68	2.464
348.04	2.577
348.39	2.619
348.75	2.580
349.11	2.544
349.46	2.533
349.82	2.567
350.18	2.563
350.53	2.710
350.89	2.576
351.24	2.556
351.60	2.510
351.96	2.437
352.31	2.401
352.67	2.332
353.02	2.361
353.38	2.404
353.74	2.412
354.09	2.370
354.45	2.225
354.80	2.219
355.16	2.261
355.52	2.315
355.87	2.279
356.23	2.343
356.58	2.406
356.94	2.433
357.29	2.377
357.65	2.328
358.00	2.308
358.36	2.337
358.72	2.293
359.07	2.222
359.43	2.234
359.78	2.207
360.14	2.110
360.49	2.023
360.85	1.986
361.20	1.982
361.56	1.994
361.91	2.029
362.27	2.049
362.62	2.138
362.98	2.145
363.33	2.152
363.69	2.165
364.04	2.186
364.40	2.224
364.75	2.260
365.11	2.230
365.46	2.176
365.82	2.069
366.17	1.967
366.53	1.826
366.88	1.800
367.24	1.738
367.59	1.751
367.95	1.777
368.30	1.819
368.66	1.777
369.01	1.846
369.37	1.891
369.72	1.984
370.08	2.067
370.43	2.151
370.78	2.135
371.14	2.111
371.49	2.053
371.85	2.023
372.20	1.986
372.56	2.027
372.91	1.989
373.26	2.029
373.62	1.960
373.97	1.957
374.33	1.944
374.68	1.975
375.03	1.965
375.39	1.966
375.74	1.974
376.10	2.011
376.45	1.980
376.80	1.969
377.16	1.903
377.51	1.932
377.87	1.946
378.22	1.983
378.57	1.932
378.93	1.909
379.28	1.947
379.63	1.954
379.99	1.908
380.34	1.888
380.70	1.885
381.05	1.896
381.40	1.884
381.76	1.849
382.11	1.774
382.46	1.772
382.82	1.741
383.17	1.695
383.52	1.680
383.88	1.700
384.23	1.705
384.58	1.686
384.94	1.686
385.29	1.678
385.64	1.637
385.99	1.632
386.35	1.661
386.70	1.663
387.05	1.693
387.41	1.701
387.76	1.670
388.11	1.643
388.47	1.599
388.82	1.583
389.17	1.579
389.52	1.565
389.88	1.623
390.23	1.609
390.58	1.630
390.93	1.652
391.29	1.655
391.64	1.677
391.99	1.683
392.34	1.714
392.70	1.696
393.05	1.723
393.40	1.755
393.75	1.723
394.11	1.738
394.46	1.705
394.81	1.668
395.16	1.649
395.52	1.640
395.87	1.649
396.22	1.689
396.57	1.681
396.92	1.635
397.28	1.598
397.63	1.565
397.98	1.553
398.33	1.608
398.68	1.605
399.04	1.577
399.39	1.544
399.74	1.541
400.09	1.517
400.44	1.529
400.80	1.558
401.15	1.568
401.50	1.609
401.85	1.577
402.20	1.556
402.55	1.571
402.90	1.572
403.26	1.547
403.61	1.527
403.96	1.505
404.31	1.515
404.66	1.502
405.01	1.504
405.36	1.473
405.72	1.488
406.07	1.437
406.42	1.441
406.77	1.445
407.12	1.480
407.47	1.503
407.82	1.500
408.17	1.485
408.53	1.501
408.88	1.502
409.23	1.503
409.58	1.510
409.93	1.560
410.28	1.542
410.63	1.530
410.98	1.542
411.33	1.509
411.68	1.524
412.03	1.493
412.38	1.437
412.73	1.440
413.09	1.413
413.44	1.411
413.79	1.415
414.14	1.431
414.49	1.429
414.84	1.428
415.19	1.432
415.54	1.445
415.89	1.436
416.24	1.466
416.59	1.466
416.94	1.495
417.29	1.480
417.64	1.472
417.99	1.458
418.34	1.456
418.69	1.432
419.04	1.435
419.39	1.429
419.74	1.464
420.09	1.460
420.44	1.456
420.79	1.440
421.14	1.444
421.49	1.449
421.84	1.441
422.19	1.451
422.54	1.458
422.89	1.464
423.24	1.445
423.59	1.421
423.94	1.421
424.29	1.419
424.64	1.420
424.99	1.447
425.34	1.436
425.68	1.443
426.03	1.436
426.38	1.424
426.73	1.408
427.08	1.407
427.43	1.405
427.78	1.403
428.13	1.392
428.48	1.420
428.83	1.380
429.18	1.368
429.53	1.375
429.87	1.381
430.22	1.376
430.57	1.381
430.92	1.376
431.27	1.382
431.62	1.372
431.97	1.370
432.32	1.340
432.67	1.356
433.01	1.374
433.36	1.351
433.71	1.341
434.06	1.376
434.41	1.376
434.76	1.386
435.11	1.410
435.45	1.424
435.80	1.422
436.15	1.427
436.50	1.418
436.85	1.411
437.20	1.404
437.54	1.393
437.89	1.370
438.24	1.360
438.59	1.384
438.94	1.338
439.29	1.319
439.63	1.316
439.98	1.317
440.33	1.311
440.68	1.299
441.03	1.320
441.37	1.308
441.72	1.309
442.07	1.308
442.42	1.288
442.76	1.314
443.11	1.311
443.46	1.311
443.81	1.316
444.16	1.313
444.50	1.320
444.85	1.309
445.20	1.327
445.55	1.322
445.89	1.317
446.24	1.314
446.59	1.304
446.94	1.311
447.28	1.308
447.63	1.290
447.98	1.276
448.32	1.242
448.67	1.226
449.02	1.206
449.37	1.203
449.71	1.195
450.06	1.194
450.41	1.192
450.75	1.189
451.10	1.184
451.45	1.172
451.79	1.180
452.14	1.199
452.49	1.219
452.84	1.201
453.18	1.203
453.53	1.197
453.88	1.204
454.22	1.172
454.57	1.167
454.92	1.166
455.26	1.175
455.61	1.172
455.95	1.182
456.30	1.184
456.65	1.188
456.99	1.180
457.34	1.182
457.69	1.181
458.03	1.199
458.38	1.196
458.73	1.214
459.07	1.206
459.42	1.194
459.76	1.180
460.11	1.183
460.46	1.189
460.80	1.183
461.15	1.183
461.49	1.157
461.84	1.147
462.19	1.145
462.53	1.115
462.88	1.113
463.22	1.127
463.57	1.135
463.91	1.112
464.26	1.124
464.61	1.119
464.95	1.136
465.30	1.130
465.64	1.132
465.99	1.117
466.33	1.132
466.68	1.121
467.02	1.108
467.37	1.101
467.71	1.098
468.06	1.068
468.41	1.058
468.75	1.034
469.10	1.049
469.44	1.036
469.79	1.034
470.13	1.009
470.48	1.023
470.82	1.034
471.17	1.019
471.51	1.001
471.86	1.014
472.20	1.006
472.55	1.002
472.89	0.989
473.23	0.987
473.58	0.978
473.92	0.980
474.27	0.966
474.61	0.952
474.96	0.950
475.30	0.962
475.65	0.959
475.99	0.985
476.34	0.971
476.68	0.959
477.02	0.958
477.37	0.962
477.71	0.968
478.06	0.978
478.40	0.988
478.75	1.016
479.09	1.040
479.43	1.063
479.78	1.084
480.12	1.126
480.47	1.165
480.81	1.190
481.15	1.221
481.50	1.250
481.84	1.277
482.19	1.304
482.53	1.325
482.87	1.329
483.22	1.326
483.56	1.314
483.90	1.288
484.25	1.264
484.59	1.253
484.94	1.237
485.28	1.217
485.62	1.197
485.97	1.169
486.31	1.140
486.65	1.124
487.00	1.119
487.34	1.121
487.68	1.122
488.03	1.126
488.37	1.121
488.71	1.112
489.06	1.105
489.40	1.089
489.74	1.085
490.09	1.079
490.43	1.070
490.77	1.058
491.11	1.048
491.46	1.041
491.80	1.018
492.14	0.989
492.49	0.968
492.83	0.940
493.17	0.915
493.51	0.892
493.86	0.882
494.20	0.859
494.54	0.846
494.88	0.834
495.23	0.823
495.57	0.829
495.91	0.836
496.25	0.837
496.60	0.829
496.94	0.823
497.28	0.811
497.62	0.783
497.97	0.777
498.31	0.780
498.65	0.765
498.99	0.768
499.33	0.759
499.68	0.750
500.02	0.739
500.36	0.743
500.70	0.735
501.04	0.735
501.39	0.758
501.73	0.766
502.07	0.754
502.41	0.765
502.75	0.766
503.09	0.762
503.44	0.770
503.78	0.771
504.12	0.781
504.46	0.787
504.80	0.794
505.14	0.777
505.49	0.780
505.83	0.781
506.17	0.778
506.51	0.775
506.85	0.789
507.19	0.790
507.53	0.798
507.87	0.799
508.22	0.816
508.56	0.813
508.90	0.815
509.24	0.812
509.58	0.812
509.92	0.806
510.26	0.787
510.60	0.767
510.94	0.754
511.28	0.742
511.63	0.737
511.97	0.724
512.31	0.721
512.65	0.726
512.99	0.742
513.33	0.741
513.67	0.748
514.01	0.773
514.35	0.799
514.69	0.820
515.03	0.840
515.37	0.835
515.71	0.854
516.05	0.864
516.39	0.860
516.73	0.853
517.07	0.851
517.41	0.849
517.75	0.848
518.09	0.838
518.43	0.842
518.77	0.828
519.11	0.819
519.45	0.799
519.79	0.791
520.13	0.792
520.47	0.784
520.81	0.793
521.15	0.794
521.49	0.799
521.83	0.804
522.17	0.800
522.51	0.800
522.85	0.829
523.19	0.863
523.53	0.898
523.87	0.930
524.21	0.961
524.55	0.989
524.89	1.017
525.23	1.048
525.57	1.065
525.91	1.083
526.25	1.101
526.58	1.113
526.92	1.117
527.26	1.123
527.60	1.127
527.94	1.127
528.28	1.119
528.62	1.112
528.96	1.101
529.30	1.092
529.64	1.079
529.97	1.081
530.31	1.071
530.65	1.058
530.99	1.039
531.33	1.028
531.67	1.021
532.01	1.031
532.35	1.036
532.68	1.032
533.02	1.035
533.36	1.038
533.70	1.027
534.04	1.029
534.38	1.016
534.71	1.007
535.05	0.994
535.39	0.981
535.73	0.961
536.07	0.952
536.41	0.951
536.74	0.955
537.08	0.956
537.42	0.971
537.76	0.972
538.10	1.005
538.43	1.020
538.77	1.042
539.11	1.055
539.45	1.065
539.79	1.067
540.12	1.075
540.46	1.076
540.80	1.068
541.14	1.056
541.47	1.054
541.81	1.033
542.15	1.030
542.49	1.022
542.82	1.013
543.16	1.008
543.50	0.997
543.84	0.979
544.17	0.953
544.51	0.940
544.85	0.936
545.18	0.915
545.52	0.911
545.86	0.899
546.20	0.874
546.53	0.851
546.87	0.829
547.21	0.814
547.54	0.793
547.88	0.795
548.22	0.799
548.55	0.771
548.89	0.761
549.23	0.752
549.56	0.754
549.90	0.745
550.24	0.749
550.57	0.732
550.91	0.738
551.25	0.743
551.58	0.743
551.92	0.739
552.26	0.744
552.59	0.723
552.93	0.726
553.27	0.709
553.60	0.712
553.94	0.697
554.27	0.692
554.61	0.689
554.95	0.671
555.28	0.654
555.62	0.644
555.95	0.646
556.29	0.663
556.63	0.654
556.96	0.653
557.30	0.654
557.63	0.662
557.97	0.686
558.31	0.655
558.64	0.680
558.98	0.697
559.31	0.693
559.65	0.695
559.98	0.681
560.32	0.668
560.65	0.645
560.99	0.658
561.33	0.666
561.66	0.654
562.00	0.666
562.33	0.646
562.67	0.640
563.00	0.660
563.34	0.687
563.67	0.716
564.01	0.724
564.34	0.752
564.68	0.748
565.01	0.741
565.35	0.751
565.68	0.764
566.02	0.772
566.35	0.791
566.69	0.785
567.02	0.767
567.36	0.779
567.69	0.780
568.03	0.772
568.36	0.769
568.69	0.784
569.03	0.793
569.36	0.797
569.70	0.803
570.03	0.812
570.37	0.822
570.70	0.835
571.04	0.825
571.37	0.821
571.70	0.820
572.04	0.811
572.37	0.802
572.71	0.787
573.04	0.777
573.37	0.785
573.71	0.770
574.04	0.767
574.38	0.741
574.71	0.726
575.04	0.742
575.38	0.749
575.71	0.759
576.05	0.761
576.38	0.763
576.71	0.748
577.05	0.746
577.38	0.738
577.71	0.708
578.05	0.694
578.38	0.690
578.71	0.662
579.05	0.634
579.38	0.614
579.71	0.606
580.05	0.583
580.38	0.591
580.71	0.562
581.05	0.548
581.38	0.553
581.71	0.559
582.05	0.552
582.38	0.521
582.71	0.514
583.04	0.507
583.38	0.488
583.71	0.488
584.04	0.480
584.38	0.470
584.71	0.460
585.04	0.460
585.37	0.441
585.71	0.441
586.04	0.462
586.37	0.480
586.70	0.472
587.04	0.476
587.37	0.469
587.70	0.441
588.03	0.413
588.37	0.408
588.70	0.405
589.03	0.392
589.36	0.380
589.69	0.370
590.03	0.345
590.36	0.359
590.69	0.329
591.02	0.329
591.35	0.305
591.69	0.303
592.02	0.289
592.35	0.297
592.68	0.302
593.01	0.309
593.35	0.306
593.68	0.294
594.01	0.285
594.34	0.293
594.67	0.282
595.00	0.278
595.34	0.273
595.67	0.252
596.00	0.192
596.33	0.162
596.66	0.127
596.99	0.083
597.32	0.044
597.65	-0.035
597.99	-0.095
598.32	-0.162
598.65	-0.197
598.98	-0.233
599.31	-0.251
599.64	-0.236
599.97	-0.249
600.30	-0.265
600.63	-0.263
600.96	-0.240
601.30	-0.208
601.63	-0.195
601.96	-0.174
602.29	-0.138
602.62	-0.140
602.95	-0.153
603.28	-0.179
603.61	-0.195
603.94	-0.222
604.27	-0.233
604.60	-0.254
604.93	-0.281
605.26	-0.313
605.59	-0.336
605.92	-0.390
606.25	-0.393
606.58	-0.399
606.91	-0.407
607.24	-0.421
607.57	-0.417
607.90	-0.438
608.23	-0.473
608.56	-0.502
608.89	-0.526
609.22	-0.564
609.55	-0.576
609.88	-0.623
610.21	-0.663
610.54	-0.730
610.87	-0.770
611.20	-0.834
611.53	-0.886
611.86	-0.919
612.19	-0.947
612.52	-0.981
612.85	-0.986
613.18	-1.038
613.51	-1.088
613.84	-1.132
614.17	-1.122
614.49	-1.134
614.82	-1.125
615.15	-1.125
615.48	-1.123
615.81	-1.128
616.14	-1.131
616.47	-1.154
616.80	-1.140
617.13	-1.129
617.46	-1.132
617.78	-1.204
618.11	-1.202
618.44	-1.201
618.77	-1.224
619.10	-1.281
619.43	-1.295
619.76	-1.324
620.09	-1.332
620.41	-1.333
620.74	-1.302
621.07	-1.301
621.40	-1.214
621.73	-1.195
622.06	-1.200
622.38	-1.157
622.71	-1.072
623.04	-1.062
623.37	-1.005
623.70	-0.984
624.02	-0.995
624.35	-0.998
624.68	-0.969
625.01	-0.976
625.34	-0.994
625.66	-0.989
625.99	-1.004
626.32	-1.048
626.65	-1.035
626.98	-1.052
627.30	-1.050
627.63	-1.051
627.96	-1.111
628.29	-1.155
628.61	-1.192
628.94	-1.231
629.27	-1.267
629.60	-1.323
629.92	-1.321
630.25	-1.351
630.58	-1.394
630.91	-1.420
631.23	-1.465
631.56	-1.440
631.89	-1.452
632.21	-1.436
632.54	-1.405
632.87	-1.417
633.19	-1.405
633.52	-1.453
633.85	-1.490
634.18	-1.510
634.50	-1.574
634.83	-1.563
635.16	-1.604
635.48	-1.618
635.81	-1.673
636.14	-1.733
636.46	-1.763
636.79	-1.796
637.11	-1.815
637.44	-1.838
637.77	-1.852
638.09	-1.890
638.42	-1.923
638.75	-1.933
639.07	-1.987
639.40	-2.016
639.73	-2.005
640.05	-2.053
640.38	-2.055
640.70	-2.102
641.03	-2.104
641.36	-2.108
641.68	-2.086
642.01	-2.070
642.33	-2.039
642.66	-2.015
642.98	-2.009
643.31	-2.039
643.64	-1.966
643.96	-1.950
644.29	-1.886
644.61	-1.924
644.94	-1.874
645.26	-1.799
645.59	-1.768
645.91	-1.771
646.24	-1.748
646.56	-1.745
646.89	-1.697
647.22	-1.726
647.54	-1.739
647.87	-1.753
648.19	-1.732
648.52	-1.783
648.84	-1.862
649.17	-1.875
649.49	-1.942
649.82	-1.946
650.14	-1.934
650.47	-1.971
650.79	-1.950
651.11	-1.978
651.44	-1.983
651.76	-1.966
652.09	-1.949
652.41	-1.923
652.74	-1.955
653.06	-1.947
653.39	-1.968
653.71	-1.953
654.04	-1.896
