OOIBase32 Version 2.0.0.6 Data File
++++++++++++++++++++++++++++++++++++
Date: 01-22-2012, 21:28:33
User: Valued Ocean Optics Customer
Spectrometer Serial Number: USB2E2917
Spectrometer Channel: Master
Integration Time (msec): 4
Spectra Averaged: 10
Boxcar Smoothing: 5
Correct for Electrical Dark: Enabled
Time Normalized: Disabled
Dual-beam Reference: Disabled
Reference Channel: Master
Temperature: Not acquired
Spectrometer Type: S2000
ADC Type: USB2000
Number of Pixels in File: 2048
Graph Title: 
>>>>>Begin Spectral Data<<<<<
180.30	0.000
180.67	0.000
181.03	-338.599
181.40	43.482
181.77	43.202
182.14	-50.889
182.51	207.451
182.88	13.009
183.25	48.431
183.62	133.282
183.99	103.991
184.36	178.880
184.73	-6.073
185.10	-1068.850
185.46	331.371
185.83	1.462
186.20	-68.447
186.57	389.924
186.94	110.382
187.31	66.103
187.68	-721.657
188.05	-372.802
188.42	-57.618
188.78	267.953
189.15	123.172
189.52	92.260
189.89	65.441
190.26	62.107
190.63	56.565
191.00	53.061
191.37	38.020
191.73	59.154
192.10	47.292
192.47	24.633
192.84	-101.632
193.21	-158.809
193.58	-189.295
193.94	-91.549
194.31	-58.841
194.68	-0.731
195.05	-10.071
195.42	-50.952
195.79	-92.669
196.15	-75.372
196.52	-47.377
196.89	-52.429
197.26	-73.500
197.63	-95.233
198.00	-144.373
198.36	-223.183
198.73	-394.270
199.10	-247.588
199.47	-81.302
199.84	-14.616
200.20	-33.622
200.57	-6.912
200.94	30.631
201.31	53.290
201.68	60.838
202.04	49.775
202.41	47.076
202.78	47.190
203.15	53.543
203.51	46.592
203.88	23.395
204.25	5.741
204.62	-8.040
204.98	-23.874
205.35	-54.435
205.72	-98.259
206.09	-183.317
206.46	-121.464
206.82	-189.348
207.19	-216.192
207.56	-229.761
207.92	-166.640
208.29	-108.901
208.66	-77.603
209.03	-94.655
209.39	-43.412
209.76	-25.818
210.13	6.456
210.50	3.735
210.86	-10.323
211.23	-41.857
211.60	-65.958
211.96	-114.845
212.33	-182.427
212.70	7594.966
213.07	620.772
213.43	599.507
213.80	1883.413
214.17	419.050
214.53	2245.505
214.90	-318.780
215.27	-148.578
215.63	-228.591
216.00	-148.579
216.37	-85.871
216.74	-66.831
217.10	-57.419
217.47	-60.810
217.84	-64.466
218.20	-53.833
218.57	-41.691
218.94	-43.292
219.30	-33.253
219.67	-21.487
220.04	-11.642
220.40	-11.290
220.77	-19.547
221.13	-19.020
221.50	-11.430
221.87	-7.005
222.23	4.102
222.60	-0.178
222.97	-2.832
223.33	-10.248
223.70	-12.845
224.07	-17.311
224.43	-14.825
224.80	-4.749
225.16	-6.679
225.53	-6.091
225.90	-5.527
226.26	-4.458
226.63	-4.481
226.99	-3.524
227.36	-1.892
227.73	-0.042
228.09	1.230
228.46	3.821
228.82	2.331
229.19	4.484
229.56	3.866
229.92	5.816
230.29	4.812
230.65	5.334
231.02	3.897
231.38	6.474
231.75	5.416
232.12	6.886
232.48	3.660
232.85	5.811
233.21	4.946
233.58	8.602
233.94	7.423
234.31	7.523
234.68	5.378
235.04	7.761
235.41	5.529
235.77	4.516
236.14	4.245
236.50	5.458
236.87	5.390
237.23	5.530
237.60	2.841
237.96	1.654
238.33	0.892
238.69	2.895
239.06	1.569
239.42	1.110
239.79	1.509
240.15	1.278
240.52	1.611
240.88	0.719
241.25	0.482
241.61	0.250
241.98	0.812
242.34	1.264
242.71	0.695
243.07	1.347
243.44	1.839
243.80	2.433
244.17	2.470
244.53	2.096
244.90	2.600
245.26	2.841
245.63	3.035
245.99	3.070
246.36	3.000
246.72	3.071
247.09	2.876
247.45	2.989
247.81	2.793
248.18	2.927
248.54	3.021
248.91	2.665
249.27	2.326
249.64	2.707
250.00	2.903
250.36	2.820
250.73	2.579
251.09	2.493
251.46	1.834
251.82	2.126
252.19	1.489
252.55	1.514
252.91	1.856
253.28	1.470
253.64	0.838
254.01	0.449
254.37	0.773
254.73	1.048
255.10	1.261
255.46	2.069
255.83	1.885
256.19	2.286
256.55	2.328
256.92	2.378
257.28	2.858
257.65	3.249
258.01	3.210
258.37	3.150
258.74	3.235
259.10	3.325
259.46	2.949
259.83	2.940
260.19	2.663
260.55	2.437
260.92	2.276
261.28	1.867
261.64	1.541
262.01	1.195
262.37	0.683
262.73	0.464
263.10	0.017
263.46	0.819
263.82	0.530
264.19	0.831
264.55	1.110
264.91	1.261
265.28	1.813
265.64	1.675
266.00	1.723
266.37	2.304
266.73	2.308
267.09	2.533
267.46	2.071
267.82	2.533
268.18	2.456
268.54	2.573
268.91	2.653
269.27	2.304
269.63	2.120
270.00	2.432
270.36	2.220
270.72	2.286
271.08	2.141
271.45	2.166
271.81	2.140
272.17	2.243
272.53	2.235
272.90	2.304
273.26	2.158
273.62	2.643
273.98	2.671
274.35	2.989
274.71	2.799
275.07	3.146
275.43	3.166
275.80	3.050
276.16	3.045
276.52	2.955
276.88	2.995
277.25	3.050
277.61	2.962
277.97	2.680
278.33	2.532
278.69	2.827
279.06	2.266
279.42	2.325
279.78	2.099
280.14	1.883
280.50	1.711
280.87	1.588
281.23	1.685
281.59	1.582
281.95	1.712
282.31	1.728
282.68	1.733
283.04	2.014
283.40	1.848
283.76	1.992
284.12	2.174
284.48	2.500
284.85	2.542
285.21	2.601
285.57	2.624
285.93	2.687
286.29	2.533
286.65	2.497
287.02	2.484
287.38	2.536
287.74	2.585
288.10	2.513
288.46	2.236
288.82	2.032
289.18	1.638
289.54	1.449
289.91	1.391
290.27	1.646
290.63	1.658
290.99	1.733
291.35	1.876
291.71	1.906
292.07	1.876
292.43	2.117
292.79	2.432
293.16	2.954
293.52	3.236
293.88	3.300
294.24	3.216
294.60	3.402
294.96	3.401
295.32	3.479
295.68	3.365
296.04	3.653
296.40	3.531
296.76	3.521
297.12	3.810
297.49	3.884
297.85	4.171
298.21	4.444
298.57	4.512
298.93	4.782
299.29	5.051
299.65	5.513
300.01	5.541
300.37	5.839
300.73	6.042
301.09	5.926
301.45	5.958
301.81	6.157
302.17	6.258
302.53	6.356
302.89	6.305
303.25	6.298
303.61	6.402
303.97	6.730
304.33	7.029
304.69	7.472
305.05	7.705
305.41	7.954
305.77	7.914
306.13	8.066
306.49	8.116
306.85	8.332
307.21	8.345
307.57	8.296
307.93	8.333
308.29	8.390
308.65	8.097
309.01	8.138
309.37	8.089
309.73	8.207
310.09	8.263
310.45	8.334
310.81	8.449
311.17	8.471
311.53	8.604
311.89	8.705
312.25	8.699
312.61	8.954
312.96	8.876
313.32	8.866
313.68	8.718
314.04	8.816
314.40	8.776
314.76	8.783
315.12	8.889
315.48	8.951
315.84	8.627
316.20	8.482
316.56	8.340
316.92	8.303
317.27	8.507
317.63	8.656
317.99	8.423
318.35	8.493
318.71	8.539
319.07	8.590
319.43	8.276
319.79	8.392
320.15	8.427
320.50	8.487
320.86	8.542
321.22	8.550
321.58	8.405
321.94	8.453
322.30	8.522
322.66	8.490
323.01	8.329
323.37	8.601
323.73	8.513
324.09	8.716
324.45	8.685
324.81	8.721
325.17	8.668
325.52	8.645
325.88	8.573
326.24	8.520
326.60	8.417
326.96	8.579
327.31	8.340
327.67	8.453
328.03	8.286
328.39	8.167
328.75	8.121
329.11	8.080
329.46	8.161
329.82	8.205
330.18	8.188
330.54	8.192
330.90	8.140
331.25	8.287
331.61	8.206
331.97	8.147
332.33	8.067
332.68	8.150
333.04	8.140
333.40	8.073
333.76	8.106
334.11	8.131
334.47	8.152
334.83	8.105
335.19	7.994
335.54	7.945
335.90	7.856
336.26	7.927
336.62	7.829
336.97	7.800
337.33	7.764
337.69	7.756
338.05	7.820
338.40	7.785
338.76	7.846
339.12	7.856
339.48	7.864
339.83	7.928
340.19	7.986
340.55	8.005
340.90	7.970
341.26	8.060
341.62	8.018
341.97	7.888
342.33	7.818
342.69	7.766
343.04	7.690
343.40	7.749
343.76	7.682
344.12	7.667
344.47	7.569
344.83	7.610
345.19	7.523
345.54	7.461
345.90	7.415
346.26	7.492
346.61	7.424
346.97	7.516
347.32	7.398
347.68	7.502
348.04	7.502
348.39	7.575
348.75	7.512
349.11	7.542
349.46	7.492
349.82	7.406
350.18	7.320
350.53	7.354
350.89	7.314
351.24	7.362
351.60	7.178
351.96	7.139
352.31	7.024
352.67	6.905
353.02	6.834
353.38	6.865
353.74	6.949
354.09	6.901
354.45	6.803
354.80	6.790
355.16	6.835
355.52	6.943
355.87	6.859
356.23	6.942
356.58	6.979
356.94	7.018
357.29	7.017
357.65	6.964
358.00	6.970
358.36	6.964
358.72	6.929
359.07	6.832
359.43	6.760
359.78	6.809
360.14	6.760
360.49	6.788
360.85	6.754
361.20	6.692
361.56	6.666
361.91	6.685
362.27	6.725
362.62	6.755
362.98	6.736
363.33	6.801
363.69	6.786
364.04	6.811
364.40	6.800
364.75	6.753
365.11	6.741
365.46	6.743
365.82	6.670
366.17	6.582
366.53	6.544
366.88	6.580
367.24	6.548
367.59	6.516
367.95	6.494
368.30	6.476
368.66	6.500
369.01	6.547
369.37	6.545
369.72	6.544
370.08	6.564
370.43	6.511
370.78	6.480
371.14	6.430
371.49	6.382
371.85	6.376
372.20	6.385
372.56	6.435
372.91	6.386
373.26	6.380
373.62	6.387
373.97	6.418
374.33	6.428
374.68	6.442
375.03	6.416
375.39	6.388
375.74	6.309
376.10	6.300
376.45	6.213
376.80	6.216
377.16	6.158
377.51	6.162
377.87	6.198
378.22	6.184
378.57	6.110
378.93	6.140
379.28	6.181
379.63	6.210
379.99	6.151
380.34	6.140
380.70	6.147
381.05	6.176
381.40	6.110
381.76	6.037
382.11	5.979
382.46	5.977
382.82	5.886
383.17	5.850
383.52	5.799
383.88	5.803
384.23	5.784
384.58	5.759
384.94	5.730
385.29	5.753
385.64	5.696
385.99	5.700
386.35	5.708
386.70	5.709
387.05	5.677
387.41	5.694
387.76	5.660
388.11	5.630
388.47	5.593
388.82	5.570
389.17	5.567
389.52	5.556
389.88	5.580
390.23	5.584
390.58	5.584
390.93	5.600
391.29	5.591
391.64	5.597
391.99	5.597
392.34	5.576
392.70	5.603
393.05	5.554
393.40	5.568
393.75	5.542
394.11	5.515
394.46	5.509
394.81	5.448
395.16	5.439
395.52	5.407
395.87	5.380
396.22	5.398
396.57	5.359
396.92	5.346
397.28	5.304
397.63	5.262
397.98	5.251
398.33	5.256
398.68	5.275
399.04	5.188
399.39	5.177
399.74	5.168
400.09	5.126
400.44	5.119
400.80	5.115
401.15	5.099
401.50	5.124
401.85	5.107
402.20	5.089
402.55	5.081
402.90	5.117
403.26	5.085
403.61	5.070
403.96	5.057
404.31	5.035
404.66	5.015
405.01	4.991
405.36	4.950
405.72	4.927
406.07	4.880
406.42	4.905
406.77	4.859
407.12	4.863
407.47	4.879
407.82	4.876
408.17	4.828
408.53	4.845
408.88	4.882
409.23	4.875
409.58	4.863
409.93	4.871
410.28	4.812
410.63	4.819
410.98	4.809
411.33	4.752
411.68	4.749
412.03	4.745
412.38	4.699
412.73	4.685
413.09	4.636
413.44	4.617
413.79	4.622
414.14	4.620
414.49	4.604
414.84	4.602
415.19	4.603
415.54	4.555
415.89	4.532
416.24	4.546
416.59	4.502
416.94	4.511
417.29	4.475
417.64	4.464
417.99	4.446
418.34	4.430
418.69	4.387
419.04	4.378
419.39	4.387
419.74	4.388
420.09	4.362
420.44	4.358
420.79	4.359
421.14	4.360
421.49	4.350
421.84	4.332
422.19	4.339
422.54	4.363
422.89	4.358
423.24	4.349
423.59	4.352
423.94	4.377
424.29	4.390
424.64	4.388
424.99	4.424
425.34	4.432
425.68	4.442
426.03	4.456
426.38	4.465
426.73	4.469
427.08	4.472
427.43	4.486
427.78	4.473
428.13	4.464
428.48	4.476
428.83	4.453
429.18	4.438
429.53	4.476
429.87	4.468
430.22	4.451
430.57	4.450
430.92	4.453
431.27	4.454
431.62	4.434
431.97	4.419
432.32	4.401
432.67	4.411
433.01	4.424
433.36	4.408
433.71	4.402
434.06	4.423
434.41	4.431
434.76	4.465
435.11	4.460
435.45	4.483
435.80	4.499
436.15	4.527
436.50	4.513
436.85	4.492
437.20	4.466
437.54	4.452
437.89	4.454
438.24	4.449
438.59	4.433
438.94	4.414
439.29	4.380
439.63	4.358
439.98	4.334
440.33	4.339
440.68	4.349
441.03	4.352
441.37	4.347
441.72	4.321
442.07	4.321
442.42	4.307
442.76	4.321
443.11	4.326
443.46	4.351
443.81	4.340
444.16	4.335
444.50	4.329
444.85	4.333
445.20	4.343
445.55	4.351
445.89	4.339
446.24	4.344
446.59	4.345
446.94	4.357
447.28	4.346
447.63	4.363
447.98	4.349
448.32	4.341
448.67	4.344
449.02	4.339
449.37	4.355
449.71	4.360
450.06	4.379
450.41	4.381
450.75	4.377
451.10	4.379
451.45	4.363
451.79	4.383
452.14	4.387
452.49	4.385
452.84	4.374
453.18	4.361
453.53	4.385
453.88	4.377
454.22	4.360
454.57	4.351
454.92	4.341
455.26	4.332
455.61	4.325
455.95	4.318
456.30	4.327
456.65	4.334
456.99	4.310
457.34	4.285
457.69	4.276
458.03	4.274
458.38	4.292
458.73	4.306
459.07	4.318
459.42	4.317
459.76	4.322
460.11	4.329
460.46	4.328
460.80	4.342
461.15	4.342
461.49	4.316
461.84	4.324
462.19	4.312
462.53	4.300
462.88	4.304
463.22	4.298
463.57	4.307
463.91	4.300
464.26	4.307
464.61	4.306
464.95	4.341
465.30	4.369
465.64	4.382
465.99	4.372
466.33	4.378
466.68	4.361
467.02	4.369
467.37	4.367
467.71	4.340
468.06	4.327
468.41	4.310
468.75	4.294
469.10	4.296
469.44	4.275
469.79	4.290
470.13	4.273
470.48	4.271
470.82	4.289
471.17	4.290
471.51	4.295
471.86	4.294
472.20	4.303
472.55	4.295
472.89	4.277
473.23	4.264
473.58	4.232
473.92	4.219
474.27	4.202
474.61	4.168
474.96	4.139
475.30	4.142
475.65	4.145
475.99	4.132
476.34	4.115
476.68	4.102
477.02	4.099
477.37	4.105
477.71	4.107
478.06	4.104
478.40	4.099
478.75	4.118
479.09	4.129
479.43	4.149
479.78	4.184
480.12	4.226
480.47	4.263
480.81	4.294
481.15	4.342
481.50	4.393
481.84	4.454
482.19	4.519
482.53	4.557
482.87	4.564
483.22	4.536
483.56	4.478
483.90	4.408
484.25	4.360
484.59	4.336
484.94	4.290
485.28	4.231
485.62	4.170
485.97	4.091
486.31	4.029
486.65	3.998
487.00	4.012
487.34	4.047
487.68	4.093
488.03	4.118
488.37	4.114
488.71	4.111
489.06	4.114
489.40	4.104
489.74	4.099
490.09	4.096
490.43	4.089
490.77	4.067
491.11	4.067
491.46	4.063
491.80	4.043
492.14	4.026
492.49	4.008
492.83	3.984
493.17	3.967
493.51	3.958
493.86	3.947
494.20	3.940
494.54	3.941
494.88	3.930
495.23	3.916
495.57	3.926
495.91	3.934
496.25	3.928
496.60	3.936
496.94	3.930
497.28	3.920
497.62	3.911
497.97	3.916
498.31	3.919
498.65	3.924
498.99	3.928
499.33	3.925
499.68	3.907
500.02	3.919
500.36	3.910
500.70	3.911
501.04	3.915
501.39	3.917
501.73	3.919
502.07	3.910
502.41	3.903
502.75	3.910
503.09	3.917
503.44	3.927
503.78	3.915
504.12	3.926
504.46	3.917
504.80	3.928
505.14	3.940
505.49	3.949
505.83	3.952
506.17	3.960
506.51	3.953
506.85	3.937
507.19	3.928
507.53	3.938
507.87	3.935
508.22	3.949
508.56	3.942
508.90	3.929
509.24	3.912
509.58	3.908
509.92	3.893
510.26	3.874
510.60	3.865
510.94	3.871
511.28	3.850
511.63	3.844
511.97	3.840
512.31	3.830
512.65	3.831
512.99	3.845
513.33	3.849
513.67	3.856
514.01	3.869
514.35	3.896
514.69	3.892
515.03	3.908
515.37	3.917
515.71	3.920
516.05	3.921
516.39	3.914
516.73	3.898
517.07	3.900
517.41	3.893
517.75	3.887
518.09	3.867
518.43	3.863
518.77	3.856
519.11	3.833
519.45	3.820
519.79	3.820
520.13	3.816
520.47	3.826
520.81	3.813
521.15	3.811
521.49	3.820
521.83	3.804
522.17	3.798
522.51	3.783
522.85	3.807
523.19	3.818
523.53	3.841
523.87	3.872
524.21	3.883
524.55	3.912
524.89	3.929
525.23	3.944
525.57	3.975
525.91	3.997
526.25	4.007
526.58	4.016
526.92	4.038
527.26	4.043
527.60	4.039
527.94	4.033
528.28	4.016
528.62	4.014
528.96	4.002
529.30	3.985
529.64	3.969
529.97	3.967
530.31	3.947
530.65	3.913
530.99	3.888
531.33	3.881
531.67	3.880
532.01	3.884
532.35	3.879
532.68	3.875
533.02	3.870
533.36	3.864
533.70	3.855
534.04	3.856
534.38	3.848
534.71	3.842
535.05	3.810
535.39	3.791
535.73	3.776
536.07	3.754
536.41	3.749
536.74	3.753
537.08	3.755
537.42	3.760
537.76	3.760
538.10	3.772
538.43	3.786
538.77	3.814
539.11	3.828
539.45	3.836
539.79	3.843
540.12	3.847
540.46	3.849
540.80	3.834
541.14	3.826
541.47	3.827
541.81	3.811
542.15	3.794
542.49	3.775
542.82	3.766
543.16	3.743
543.50	3.728
543.84	3.713
544.17	3.682
544.51	3.692
544.85	3.696
545.18	3.665
545.52	3.662
545.86	3.660
546.20	3.654
546.53	3.635
546.87	3.639
547.21	3.643
547.54	3.645
547.88	3.650
548.22	3.644
548.55	3.620
548.89	3.612
549.23	3.610
549.56	3.602
549.90	3.592
550.24	3.595
550.57	3.574
550.91	3.561
551.25	3.541
551.58	3.536
551.92	3.524
552.26	3.534
552.59	3.542
552.93	3.542
553.27	3.514
553.60	3.497
553.94	3.480
554.27	3.506
554.61	3.510
554.95	3.507
555.28	3.509
555.62	3.509
555.95	3.504
556.29	3.507
556.63	3.491
556.96	3.513
557.30	3.550
557.63	3.547
557.97	3.540
558.31	3.537
558.64	3.560
558.98	3.584
559.31	3.580
559.65	3.577
559.98	3.552
560.32	3.563
560.65	3.551
560.99	3.518
561.33	3.533
561.66	3.516
562.00	3.505
562.33	3.474
562.67	3.436
563.00	3.451
563.34	3.458
563.67	3.481
564.01	3.478
564.34	3.487
564.68	3.490
565.01	3.468
565.35	3.481
565.68	3.491
566.02	3.494
566.35	3.518
566.69	3.506
567.02	3.502
567.36	3.511
567.69	3.494
568.03	3.492
568.36	3.488
568.69	3.517
569.03	3.523
569.36	3.513
569.70	3.519
570.03	3.513
570.37	3.511
570.70	3.512
571.04	3.519
571.37	3.522
571.70	3.513
572.04	3.508
572.37	3.488
572.71	3.474
573.04	3.454
573.37	3.450
573.71	3.443
574.04	3.457
574.38	3.444
574.71	3.418
575.04	3.423
575.38	3.415
575.71	3.430
576.05	3.417
576.38	3.414
576.71	3.415
577.05	3.419
577.38	3.426
577.71	3.415
578.05	3.409
578.38	3.402
578.71	3.374
579.05	3.354
579.38	3.353
579.71	3.378
580.05	3.357
580.38	3.378
580.71	3.382
581.05	3.355
581.38	3.342
581.71	3.339
582.05	3.345
582.38	3.349
582.71	3.371
583.04	3.362
583.38	3.340
583.71	3.331
584.04	3.316
584.38	3.299
584.71	3.300
585.04	3.308
585.37	3.311
585.71	3.316
586.04	3.333
586.37	3.339
586.70	3.329
587.04	3.351
587.37	3.362
587.70	3.347
588.03	3.315
588.37	3.292
588.70	3.262
589.03	3.254
589.36	3.255
589.69	3.240
590.03	3.226
590.36	3.227
590.69	3.179
591.02	3.188
591.35	3.178
591.69	3.170
592.02	3.176
592.35	3.192
592.68	3.191
593.01	3.174
593.35	3.174
593.68	3.167
594.01	3.161
594.34	3.187
594.67	3.146
595.00	3.129
595.34	3.122
595.67	3.098
596.00	3.058
596.33	3.032
596.66	3.002
596.99	2.966
597.32	2.935
597.65	2.877
597.99	2.808
598.32	2.796
598.65	2.766
598.98	2.732
599.31	2.724
599.64	2.735
599.97	2.732
600.30	2.689
600.63	2.707
600.96	2.710
601.30	2.722
601.63	2.730
601.96	2.726
602.29	2.744
602.62	2.753
602.95	2.759
603.28	2.720
603.61	2.697
603.94	2.713
604.27	2.694
604.60	2.703
604.93	2.681
605.26	2.651
605.59	2.648
605.92	2.622
606.25	2.626
606.58	2.609
606.91	2.606
607.24	2.599
607.57	2.576
607.90	2.550
608.23	2.522
608.56	2.514
608.89	2.527
609.22	2.473
609.55	2.459
609.88	2.424
610.21	2.393
610.54	2.352
610.87	2.307
611.20	2.271
611.53	2.226
611.86	2.158
612.19	2.135
612.52	2.075
612.85	2.088
613.18	2.046
613.51	2.004
613.84	1.938
614.17	1.950
614.49	1.932
614.82	1.970
615.15	1.981
615.48	2.005
615.81	1.984
616.14	1.999
616.47	1.964
616.80	1.961
617.13	1.969
617.46	1.988
617.78	1.920
618.11	1.919
618.44	1.884
618.77	1.854
619.10	1.796
619.43	1.808
619.76	1.770
620.09	1.774
620.41	1.784
620.74	1.813
621.07	1.812
621.40	1.883
621.73	1.903
622.06	1.904
622.38	1.936
622.71	2.000
623.04	2.009
623.37	2.059
623.70	2.052
624.02	2.061
624.35	2.037
624.68	2.058
625.01	2.048
625.34	2.045
625.66	2.038
625.99	2.039
626.32	2.031
626.65	2.027
626.98	2.021
627.30	2.057
627.63	2.040
627.96	2.003
628.29	1.971
628.61	1.945
628.94	1.921
629.27	1.909
629.60	1.889
629.92	1.869
630.25	1.834
630.58	1.772
630.91	1.713
631.23	1.706
631.56	1.717
631.89	1.719
632.21	1.753
632.54	1.750
632.87	1.729
633.19	1.700
633.52	1.657
633.85	1.654
634.18	1.685
634.50	1.687
634.83	1.644
635.16	1.625
635.48	1.604
635.81	1.563
636.14	1.535
636.46	1.520
636.79	1.522
637.11	1.506
637.44	1.468
637.77	1.414
638.09	1.376
638.42	1.358
638.75	1.328
639.07	1.289
639.40	1.251
639.73	1.260
640.05	1.242
640.38	1.207
640.70	1.182
641.03	1.159
641.36	1.154
641.68	1.166
642.01	1.213
642.33	1.249
642.66	1.271
642.98	1.257
643.31	1.235
643.64	1.271
643.96	1.296
644.29	1.318
644.61	1.315
644.94	1.332
645.26	1.369
645.59	1.401
645.91	1.411
646.24	1.463
646.56	1.484
646.89	1.497
647.22	1.465
647.54	1.455
647.87	1.508
648.19	1.533
648.52	1.522
648.84	1.452
649.17	1.437
649.49	1.385
649.82	1.353
650.14	1.354
650.47	1.348
650.79	1.395
651.11	1.365
651.44	1.297
651.76	1.318
652.09	1.330
652.41	1.402
652.74	1.329
653.06	1.313
653.39	1.304
653.71	1.312
654.04	1.324
654.36	1.292
654.68	1.326
655.01	1.376
655.33	1.448
655.66	1.477
655.98	1.499
656.30	1.542
656.63	1.574
656.95	1.578
657.28	1.588
657.60	1.604
657.92	1.585
