OOIBase32 Version 2.0.0.6 Data File
++++++++++++++++++++++++++++++++++++
Date: 01-22-2012, 21:21:04
User: Valued Ocean Optics Customer
Spectrometer Serial Number: USB2E2917
Spectrometer Channel: Master
Integration Time (msec): 4
Spectra Averaged: 10
Boxcar Smoothing: 5
Correct for Electrical Dark: Enabled
Time Normalized: Disabled
Dual-beam Reference: Disabled
Reference Channel: Master
Temperature: Not acquired
Spectrometer Type: S2000
ADC Type: USB2000
Number of Pixels in File: 2048
Graph Title: 
>>>>>Begin Spectral Data<<<<<
180.30	0.000
180.67	0.000
181.03	-186.928
181.40	-0.800
181.77	-96.299
182.14	80.091
182.51	936.141
182.88	148.031
183.25	210.539
183.62	-110.001
183.99	79.083
184.36	0.899
184.73	-102.859
185.10	3272.387
185.46	204.855
185.83	-6.869
186.20	76.599
186.57	225.028
186.94	95.841
187.31	20.608
187.68	-161.864
188.05	146.219
188.42	106.883
188.78	-8.896
189.15	27.402
189.52	42.956
189.89	31.062
190.26	45.461
190.63	47.623
191.00	42.956
191.37	16.080
191.73	-0.920
192.10	-28.841
192.47	-28.612
192.84	-100.514
193.21	-150.734
193.58	-158.706
193.94	-174.255
194.31	-84.095
194.68	-44.300
195.05	-40.956
195.42	-58.302
195.79	-29.626
196.15	-6.862
196.52	22.003
196.89	32.080
197.26	38.017
197.63	6.382
198.00	37.332
198.36	36.662
198.73	85.627
199.10	66.671
199.47	81.265
199.84	67.342
200.20	83.735
200.57	75.543
200.94	83.430
201.31	78.946
201.68	93.906
202.04	87.755
202.41	78.055
202.78	73.269
203.15	73.358
203.51	64.547
203.88	66.366
204.25	52.114
204.62	31.895
204.98	22.047
205.35	-1.615
205.72	-50.579
206.09	-137.152
206.46	-79.890
206.82	-131.418
207.19	-142.643
207.56	-147.340
207.92	-168.733
208.29	-105.187
208.66	-70.286
209.03	-87.066
209.39	-46.669
209.76	-20.303
210.13	14.598
210.50	14.545
210.86	0.718
211.23	-4.478
211.60	-34.021
211.96	-49.207
212.33	-84.765
212.70	5659.493
213.07	536.633
213.43	446.731
213.80	1082.033
214.17	282.839
214.53	1346.342
214.90	-142.184
215.27	-48.314
215.63	-54.570
216.00	-22.032
216.37	-14.361
216.74	2.123
217.10	12.408
217.47	5.463
217.84	-4.222
218.20	1.649
218.57	6.694
218.94	9.127
219.30	5.117
219.67	14.302
220.04	19.971
220.40	23.425
220.77	35.226
221.13	33.311
221.50	37.806
221.87	34.310
222.23	35.340
222.60	22.986
222.97	14.330
223.33	5.819
223.70	-4.347
224.07	-4.644
224.43	-3.987
224.80	-1.906
225.16	-2.501
225.53	-1.693
225.90	-2.450
226.26	0.464
226.63	2.245
226.99	2.996
227.36	5.550
227.73	7.840
228.09	6.925
228.46	8.285
228.82	7.382
229.19	8.071
229.56	6.001
229.92	7.531
230.29	5.469
230.65	7.099
231.02	6.207
231.38	6.381
231.75	4.935
232.12	5.565
232.48	2.109
232.85	2.572
233.21	2.121
233.58	6.063
233.94	7.853
234.31	8.638
234.68	6.598
235.04	8.728
235.41	8.129
235.77	7.369
236.14	6.948
236.50	10.262
236.87	10.807
237.23	10.647
237.60	7.985
237.96	6.511
238.33	6.481
238.69	6.589
239.06	4.782
239.42	3.657
239.79	3.986
240.15	4.522
240.52	4.043
240.88	3.185
241.25	2.991
241.61	3.031
241.98	3.173
242.34	2.542
242.71	2.460
243.07	2.968
243.44	3.638
243.80	3.746
244.17	3.157
244.53	2.498
244.90	2.793
245.26	3.040
245.63	3.039
245.99	2.713
246.36	2.970
246.72	2.969
247.09	2.794
247.45	2.865
247.81	2.834
248.18	3.139
248.54	3.666
248.91	3.600
249.27	2.868
249.64	3.177
250.00	3.788
250.36	4.059
250.73	3.785
251.09	3.760
251.46	3.037
251.82	2.925
252.19	3.192
252.55	2.804
252.91	3.265
253.28	3.667
253.64	3.527
254.01	3.013
254.37	3.111
254.73	3.393
255.10	3.278
255.46	3.846
255.83	3.755
256.19	3.454
256.55	3.601
256.92	3.468
257.28	3.427
257.65	3.478
258.01	3.314
258.37	3.126
258.74	3.119
259.10	3.196
259.46	3.071
259.83	3.013
260.19	3.070
260.55	2.979
260.92	2.769
261.28	2.774
261.64	2.595
262.01	2.449
262.37	2.056
262.73	2.128
263.10	2.011
263.46	2.082
263.82	2.228
264.19	1.867
264.55	2.016
264.91	2.456
265.28	2.742
265.64	2.597
266.00	2.692
266.37	3.158
266.73	3.099
267.09	3.225
267.46	2.993
267.82	3.079
268.18	3.412
268.54	3.463
268.91	3.472
269.27	3.313
269.63	3.213
270.00	3.306
270.36	3.251
270.72	3.152
271.08	3.283
271.45	3.461
271.81	3.530
272.17	3.743
272.53	3.855
272.90	3.894
273.26	3.756
273.62	4.093
273.98	4.357
274.35	4.286
274.71	4.231
275.07	4.222
275.43	4.181
275.80	4.213
276.16	3.915
276.52	3.655
276.88	3.606
277.25	3.360
277.61	3.401
277.97	3.355
278.33	3.498
278.69	3.650
279.06	3.451
279.42	3.457
279.78	3.251
280.14	3.216
280.50	3.212
280.87	3.096
281.23	3.433
281.59	3.537
281.95	3.473
282.31	3.319
282.68	3.321
283.04	3.405
283.40	3.357
283.76	3.457
284.12	3.481
284.48	3.591
284.85	3.464
285.21	3.497
285.57	3.343
285.93	3.374
286.29	3.308
286.65	3.302
287.02	3.447
287.38	3.466
287.74	3.459
288.10	3.414
288.46	3.040
288.82	2.890
289.18	2.531
289.54	2.391
289.91	2.266
290.27	2.529
290.63	2.766
290.99	2.667
291.35	2.525
291.71	2.414
292.07	2.405
292.43	2.680
292.79	3.008
293.16	3.483
293.52	3.702
293.88	3.770
294.24	3.656
294.60	3.520
294.96	3.421
295.32	3.591
295.68	3.552
296.04	3.670
296.40	3.673
296.76	3.653
297.12	3.655
297.49	3.675
297.85	3.809
298.21	3.899
298.57	3.708
298.93	3.948
299.29	4.002
299.65	4.264
300.01	4.230
300.37	4.267
300.73	4.245
301.09	4.101
301.45	3.868
301.81	3.835
302.17	3.787
302.53	3.912
302.89	3.832
303.25	3.718
303.61	3.522
303.97	3.486
304.33	3.516
304.69	3.652
305.05	3.820
305.41	3.980
305.77	3.829
306.13	3.750
306.49	3.816
306.85	3.770
307.21	3.666
307.57	3.590
307.93	3.681
308.29	3.854
308.65	3.718
309.01	3.512
309.37	3.433
309.73	3.624
310.09	3.731
310.45	3.690
310.81	3.783
311.17	3.866
311.53	3.977
311.89	3.980
312.25	3.885
312.61	4.041
312.96	4.307
313.32	4.382
313.68	4.241
314.04	4.123
314.40	4.118
314.76	3.995
315.12	4.109
315.48	4.090
315.84	3.902
316.20	3.678
316.56	3.589
316.92	3.375
317.27	3.392
317.63	3.332
317.99	3.455
318.35	3.549
318.71	3.696
319.07	3.761
319.43	3.761
319.79	3.854
320.15	4.184
320.50	4.259
320.86	4.332
321.22	4.549
321.58	4.555
321.94	4.561
322.30	4.699
322.66	4.703
323.01	4.653
323.37	4.743
323.73	4.742
324.09	4.789
324.45	4.806
324.81	4.899
325.17	4.763
325.52	4.900
325.88	4.799
326.24	4.675
326.60	4.576
326.96	4.573
327.31	4.475
327.67	4.599
328.03	4.504
328.39	4.415
328.75	4.283
329.11	4.285
329.46	4.276
329.82	4.364
330.18	4.391
330.54	4.472
330.90	4.415
331.25	4.438
331.61	4.373
331.97	4.348
332.33	4.480
332.68	4.573
333.04	4.611
333.40	4.632
333.76	4.703
334.11	4.689
334.47	4.698
334.83	4.738
335.19	4.816
335.54	4.743
335.90	4.711
336.26	4.699
336.62	4.660
336.97	4.572
337.33	4.546
337.69	4.506
338.05	4.600
338.40	4.525
338.76	4.595
339.12	4.531
339.48	4.540
339.83	4.614
340.19	4.602
340.55	4.645
340.90	4.701
341.26	4.625
341.62	4.607
341.97	4.465
342.33	4.435
342.69	4.462
343.04	4.474
343.40	4.508
343.76	4.352
344.12	4.285
344.47	4.214
344.83	4.196
345.19	4.241
345.54	4.330
345.90	4.395
346.26	4.450
346.61	4.327
346.97	4.407
347.32	4.423
347.68	4.553
348.04	4.635
348.39	4.626
348.75	4.673
349.11	4.562
349.46	4.512
349.82	4.489
350.18	4.527
350.53	4.631
350.89	4.559
351.24	4.662
351.60	4.613
351.96	4.568
352.31	4.612
352.67	4.536
353.02	4.602
353.38	4.579
353.74	4.611
354.09	4.639
354.45	4.595
354.80	4.518
355.16	4.450
355.52	4.498
355.87	4.510
356.23	4.576
356.58	4.581
356.94	4.610
357.29	4.607
357.65	4.559
358.00	4.545
358.36	4.576
358.72	4.630
359.07	4.603
359.43	4.597
359.78	4.634
360.14	4.636
360.49	4.678
360.85	4.670
361.20	4.642
361.56	4.642
361.91	4.644
362.27	4.608
362.62	4.627
362.98	4.682
363.33	4.681
363.69	4.659
364.04	4.585
364.40	4.565
364.75	4.558
365.11	4.598
365.46	4.630
365.82	4.579
366.17	4.556
366.53	4.558
366.88	4.516
367.24	4.524
367.59	4.516
367.95	4.577
368.30	4.610
368.66	4.614
369.01	4.658
369.37	4.647
369.72	4.707
370.08	4.762
370.43	4.789
370.78	4.844
371.14	4.789
371.49	4.773
371.85	4.749
372.20	4.793
372.56	4.876
372.91	4.836
373.26	4.886
373.62	4.878
373.97	4.895
374.33	4.923
374.68	4.916
375.03	4.962
375.39	4.942
375.74	4.959
376.10	4.962
376.45	4.961
376.80	5.006
377.16	4.959
377.51	4.968
377.87	5.012
378.22	5.057
378.57	5.097
378.93	5.110
379.28	5.189
379.63	5.227
379.99	5.246
380.34	5.247
380.70	5.296
381.05	5.351
381.40	5.350
381.76	5.354
382.11	5.311
382.46	5.321
382.82	5.354
383.17	5.338
383.52	5.380
383.88	5.415
384.23	5.514
384.58	5.526
384.94	5.589
385.29	5.650
385.64	5.677
385.99	5.732
386.35	5.772
386.70	5.798
387.05	5.859
387.41	5.848
387.76	5.814
388.11	5.780
388.47	5.749
388.82	5.774
389.17	5.787
389.52	5.769
389.88	5.782
390.23	5.799
390.58	5.811
390.93	5.857
391.29	5.937
391.64	6.026
391.99	6.092
392.34	6.141
392.70	6.159
393.05	6.213
393.40	6.313
393.75	6.357
394.11	6.362
394.46	6.434
394.81	6.448
395.16	6.473
395.52	6.510
395.87	6.509
396.22	6.536
396.57	6.547
396.92	6.529
397.28	6.521
397.63	6.509
397.98	6.596
398.33	6.629
398.68	6.683
399.04	6.698
399.39	6.709
399.74	6.746
400.09	6.788
400.44	6.811
400.80	6.866
401.15	6.867
401.50	6.929
401.85	6.920
402.20	6.935
402.55	6.968
402.90	6.983
403.26	6.996
403.61	7.026
403.96	7.073
404.31	7.155
404.66	7.184
405.01	7.237
405.36	7.264
405.72	7.280
406.07	7.299
406.42	7.324
406.77	7.350
407.12	7.394
407.47	7.419
407.82	7.405
408.17	7.379
408.53	7.403
408.88	7.457
409.23	7.445
409.58	7.486
409.93	7.526
410.28	7.533
410.63	7.574
410.98	7.580
411.33	7.585
411.68	7.639
412.03	7.654
412.38	7.649
412.73	7.673
413.09	7.689
413.44	7.693
413.79	7.723
414.14	7.754
414.49	7.761
414.84	7.805
415.19	7.808
415.54	7.794
415.89	7.780
416.24	7.813
416.59	7.784
416.94	7.830
417.29	7.836
417.64	7.826
417.99	7.815
418.34	7.821
418.69	7.805
419.04	7.828
419.39	7.868
419.74	7.922
420.09	7.939
420.44	7.965
420.79	7.989
421.14	8.017
421.49	8.061
421.84	8.094
422.19	8.125
422.54	8.169
422.89	8.211
423.24	8.229
423.59	8.263
423.94	8.312
424.29	8.368
424.64	8.401
424.99	8.468
425.34	8.514
425.68	8.562
426.03	8.642
426.38	8.691
426.73	8.741
427.08	8.794
427.43	8.823
427.78	8.827
428.13	8.839
428.48	8.879
428.83	8.878
429.18	8.888
429.53	8.939
429.87	8.934
430.22	8.940
430.57	8.971
430.92	8.981
431.27	9.009
431.62	9.039
431.97	9.062
432.32	9.071
432.67	9.102
433.01	9.134
433.36	9.129
433.71	9.163
434.06	9.206
434.41	9.204
434.76	9.263
435.11	9.297
435.45	9.306
435.80	9.304
436.15	9.310
436.50	9.327
436.85	9.358
437.20	9.360
437.54	9.370
437.89	9.379
438.24	9.406
438.59	9.402
438.94	9.386
439.29	9.410
439.63	9.453
439.98	9.479
440.33	9.515
440.68	9.517
441.03	9.543
441.37	9.545
441.72	9.551
442.07	9.554
442.42	9.578
442.76	9.614
443.11	9.625
443.46	9.624
443.81	9.627
444.16	9.613
444.50	9.628
444.85	9.639
445.20	9.665
445.55	9.687
445.89	9.703
446.24	9.702
446.59	9.727
446.94	9.781
447.28	9.833
447.63	9.867
447.98	9.910
448.32	9.941
448.67	9.981
449.02	10.019
449.37	10.050
449.71	10.100
450.06	10.162
450.41	10.192
450.75	10.182
451.10	10.190
451.45	10.228
451.79	10.255
452.14	10.288
452.49	10.324
452.84	10.334
453.18	10.371
453.53	10.374
453.88	10.410
454.22	10.414
454.57	10.442
454.92	10.477
455.26	10.478
455.61	10.481
455.95	10.469
456.30	10.477
456.65	10.458
456.99	10.440
457.34	10.461
457.69	10.445
458.03	10.434
458.38	10.459
458.73	10.464
459.07	10.486
459.42	10.522
459.76	10.549
460.11	10.586
460.46	10.657
460.80	10.709
461.15	10.724
461.49	10.760
461.84	10.810
462.19	10.825
462.53	10.862
462.88	10.900
463.22	10.922
463.57	10.954
463.91	10.980
464.26	11.005
464.61	11.025
464.95	11.062
465.30	11.097
465.64	11.136
465.99	11.170
466.33	11.196
466.68	11.195
467.02	11.203
467.37	11.210
467.71	11.215
468.06	11.229
468.41	11.253
468.75	11.284
469.10	11.292
469.44	11.299
469.79	11.300
470.13	11.301
470.48	11.345
470.82	11.364
471.17	11.373
471.51	11.393
471.86	11.425
472.20	11.419
472.55	11.421
472.89	11.441
473.23	11.426
473.58	11.428
473.92	11.403
474.27	11.394
474.61	11.407
474.96	11.421
475.30	11.434
475.65	11.424
475.99	11.447
476.34	11.434
476.68	11.440
477.02	11.474
477.37	11.491
477.71	11.515
478.06	11.521
478.40	11.533
478.75	11.564
479.09	11.609
479.43	11.656
479.78	11.734
480.12	11.826
480.47	11.918
480.81	12.027
481.15	12.138
481.50	12.271
481.84	12.431
482.19	12.597
482.53	12.725
482.87	12.769
483.22	12.727
483.56	12.601
483.90	12.457
484.25	12.358
484.59	12.301
484.94	12.235
485.28	12.141
485.62	12.010
485.97	11.858
486.31	11.734
486.65	11.690
487.00	11.757
487.34	11.909
487.68	12.090
488.03	12.203
488.37	12.231
488.71	12.254
489.06	12.284
489.40	12.305
489.74	12.330
490.09	12.361
490.43	12.396
490.77	12.410
491.11	12.438
491.46	12.453
491.80	12.478
492.14	12.511
492.49	12.545
492.83	12.568
493.17	12.598
493.51	12.615
493.86	12.650
494.20	12.666
494.54	12.707
494.88	12.737
495.23	12.758
495.57	12.779
495.91	12.797
496.25	12.811
496.60	12.841
496.94	12.885
497.28	12.943
497.62	12.988
497.97	13.035
498.31	13.073
498.65	13.113
498.99	13.170
499.33	13.197
499.68	13.242
500.02	13.293
500.36	13.337
500.70	13.379
501.04	13.400
501.39	13.429
501.73	13.465
502.07	13.483
502.41	13.521
502.75	13.540
503.09	13.586
503.44	13.622
503.78	13.651
504.12	13.659
504.46	13.665
504.80	13.698
505.14	13.713
505.49	13.749
505.83	13.776
506.17	13.785
506.51	13.809
506.85	13.830
507.19	13.852
507.53	13.867
507.87	13.916
508.22	13.956
508.56	14.000
508.90	14.049
509.24	14.074
509.58	14.114
509.92	14.146
510.26	14.184
510.60	14.223
510.94	14.256
511.28	14.304
511.63	14.340
511.97	14.374
512.31	14.391
512.65	14.428
512.99	14.475
513.33	14.509
513.67	14.541
514.01	14.569
514.35	14.612
514.69	14.642
515.03	14.658
515.37	14.674
515.71	14.706
516.05	14.719
516.39	14.739
516.73	14.754
517.07	14.780
517.41	14.833
517.75	14.876
518.09	14.902
518.43	14.945
518.77	15.005
519.11	15.043
519.45	15.091
519.79	15.147
520.13	15.180
520.47	15.218
520.81	15.266
521.15	15.278
521.49	15.288
521.83	15.306
522.17	15.320
522.51	15.313
522.85	15.334
523.19	15.370
523.53	15.419
523.87	15.495
524.21	15.577
524.55	15.676
524.89	15.780
525.23	15.871
525.57	15.953
525.91	16.032
526.25	16.111
526.58	16.190
526.92	16.260
527.26	16.330
527.60	16.373
527.94	16.407
528.28	16.419
528.62	16.416
528.96	16.433
529.30	16.429
529.64	16.438
529.97	16.451
530.31	16.456
530.65	16.443
530.99	16.431
531.33	16.446
531.67	16.476
532.01	16.507
532.35	16.548
532.68	16.585
533.02	16.621
533.36	16.644
533.70	16.672
534.04	16.706
534.38	16.748
534.71	16.803
535.05	16.828
535.39	16.831
535.73	16.860
536.07	16.891
536.41	16.926
536.74	16.951
537.08	17.001
537.42	17.042
537.76	17.092
538.10	17.145
538.43	17.190
538.77	17.252
539.11	17.325
539.45	17.361
539.79	17.405
540.12	17.450
540.46	17.517
540.80	17.541
541.14	17.583
541.47	17.607
541.81	17.642
542.15	17.666
542.49	17.692
542.82	17.716
543.16	17.759
543.50	17.814
543.84	17.851
544.17	17.884
544.51	17.928
544.85	17.987
545.18	18.042
545.52	18.112
545.86	18.169
546.20	18.222
546.53	18.274
546.87	18.343
547.21	18.411
547.54	18.464
547.88	18.521
548.22	18.584
548.55	18.611
548.89	18.662
549.23	18.700
549.56	18.749
549.90	18.816
550.24	18.848
550.57	18.896
550.91	18.923
551.25	18.971
551.58	19.025
551.92	19.102
552.26	19.171
552.59	19.230
552.93	19.288
553.27	19.349
553.60	19.365
553.94	19.449
554.27	19.490
554.61	19.532
554.95	19.573
555.28	19.619
555.62	19.659
555.95	19.711
556.29	19.753
556.63	19.777
556.96	19.810
557.30	19.868
557.63	19.903
557.97	19.925
558.31	19.945
558.64	19.996
558.98	20.028
559.31	20.078
559.65	20.089
559.98	20.116
560.32	20.149
560.65	20.191
560.99	20.210
561.33	20.214
561.66	20.265
562.00	20.298
562.33	20.278
562.67	20.302
563.00	20.330
563.34	20.373
563.67	20.401
564.01	20.408
564.34	20.412
564.68	20.463
565.01	20.504
565.35	20.537
565.68	20.571
566.02	20.643
566.35	20.697
566.69	20.713
567.02	20.717
567.36	20.777
567.69	20.793
568.03	20.824
568.36	20.842
568.69	20.897
569.03	20.899
569.36	20.926
569.70	20.954
570.03	20.962
570.37	20.976
570.70	21.039
571.04	21.045
571.37	21.121
571.70	21.151
572.04	21.187
572.37	21.220
572.71	21.277
573.04	21.327
573.37	21.365
573.71	21.414
574.04	21.493
574.38	21.535
574.71	21.593
575.04	21.648
575.38	21.745
575.71	21.834
576.05	21.895
576.38	21.949
576.71	22.018
577.05	22.116
577.38	22.200
577.71	22.266
578.05	22.337
578.38	22.394
578.71	22.446
579.05	22.447
579.38	22.478
579.71	22.514
580.05	22.583
580.38	22.631
580.71	22.659
581.05	22.664
581.38	22.688
581.71	22.697
582.05	22.735
582.38	22.738
582.71	22.776
583.04	22.792
583.38	22.822
583.71	22.829
584.04	22.852
584.38	22.856
584.71	22.894
585.04	22.886
585.37	22.915
585.71	22.932
586.04	22.961
586.37	23.001
586.70	23.051
587.04	23.098
587.37	23.106
587.70	23.108
588.03	23.107
588.37	23.141
588.70	23.238
589.03	23.275
589.36	23.302
589.69	23.325
590.03	23.370
590.36	23.372
590.69	23.360
591.02	23.403
591.35	23.427
591.69	23.451
592.02	23.425
592.35	23.402
592.68	23.386
593.01	23.384
593.35	23.396
593.68	23.346
594.01	23.344
594.34	23.351
594.67	23.350
595.00	23.330
595.34	23.304
595.67	23.300
596.00	23.296
596.33	23.339
596.66	23.381
596.99	23.408
597.32	23.506
597.65	23.533
597.99	23.560
598.32	23.599
598.65	23.674
598.98	23.727
599.31	23.807
599.64	23.845
599.97	23.810
600.30	23.815
600.63	23.819
600.96	23.805
601.30	23.818
601.63	23.831
601.96	23.848
602.29	23.858
602.62	23.919
602.95	23.946
603.28	23.972
603.61	24.037
603.94	24.054
604.27	24.082
604.60	24.123
604.93	24.194
605.26	24.236
605.59	24.262
605.92	24.303
606.25	24.286
606.58	24.316
606.91	24.323
607.24	24.352
607.57	24.380
607.90	24.447
608.23	24.477
608.56	24.501
608.89	24.554
609.22	24.602
609.55	24.635
609.88	24.721
610.21	24.773
610.54	24.850
610.87	24.915
611.20	24.949
611.53	24.988
611.86	25.067
612.19	25.092
612.52	25.100
612.85	25.171
613.18	25.214
613.51	25.243
613.84	25.281
614.17	25.317
614.49	25.334
614.82	25.456
615.15	25.494
615.48	25.515
615.81	25.586
616.14	25.671
616.47	25.696
616.80	25.705
617.13	25.797
617.46	25.824
617.78	25.837
618.11	25.916
618.44	25.958
618.77	25.985
619.10	25.998
619.43	26.064
619.76	26.082
620.09	26.129
620.41	26.207
620.74	26.197
621.07	26.231
621.40	26.311
621.73	26.307
622.06	26.315
622.38	26.378
622.71	26.427
623.04	26.389
623.37	26.411
623.70	26.412
624.02	26.398
624.35	26.435
624.68	26.457
625.01	26.424
625.34	26.457
625.66	26.462
625.99	26.437
626.32	26.489
626.65	26.562
626.98	26.616
627.30	26.683
627.63	26.765
627.96	26.765
628.29	26.837
628.61	26.894
628.94	26.919
629.27	26.944
629.60	27.044
629.92	27.048
630.25	27.033
630.58	27.037
630.91	27.031
631.23	27.008
631.56	27.069
631.89	27.039
632.21	27.093
632.54	27.137
632.87	27.178
633.19	27.204
633.52	27.223
633.85	27.250
634.18	27.237
634.50	27.284
634.83	27.389
635.16	27.428
635.48	27.504
635.81	27.585
636.14	27.598
636.46	27.657
636.79	27.686
637.11	27.736
637.44	27.813
637.77	27.919
638.09	27.918
638.42	27.915
638.75	27.949
639.07	28.002
639.40	27.996
639.73	28.083
640.05	28.112
640.38	28.088
640.70	28.079
641.03	28.097
641.36	28.092
641.68	28.108
642.01	28.172
642.33	28.255
642.66	28.316
642.98	28.385
643.31	28.373
643.64	28.404
643.96	28.462
644.29	28.564
644.61	28.593
644.94	28.666
645.26	28.822
645.59	28.823
