OOIBase32 Version 2.0.0.6 Data File
++++++++++++++++++++++++++++++++++++
Date: 01-22-2012, 21:22:13
User: Valued Ocean Optics Customer
Spectrometer Serial Number: USB2E2917
Spectrometer Channel: Master
Integration Time (msec): 4
Spectra Averaged: 10
Boxcar Smoothing: 5
Correct for Electrical Dark: Enabled
Time Normalized: Disabled
Dual-beam Reference: Disabled
Reference Channel: Master
Temperature: Not acquired
Spectrometer Type: S2000
ADC Type: USB2000
Number of Pixels in File: 2048
Graph Title: 
>>>>>Begin Spectral Data<<<<<
180.30	0.000
180.67	0.000
181.03	-24.740
181.40	3.544
181.77	-117.434
182.14	70.952
182.51	563.059
182.88	34.646
183.25	-127.428
183.62	-202.734
183.99	37.394
184.36	208.691
184.73	-32.050
185.10	2015.195
185.46	93.368
185.83	105.483
186.20	-124.420
186.57	5.951
186.94	82.703
187.31	45.266
187.68	-5710.311
188.05	-306.099
188.42	-99.835
188.78	137.276
189.15	84.064
189.52	85.364
189.89	34.880
190.26	42.551
190.63	62.246
191.00	78.105
191.37	110.163
191.73	191.177
192.10	151.276
192.47	97.694
192.84	152.435
193.21	177.016
193.58	15.815
193.94	-18.973
194.31	-9.147
194.68	-6.791
195.05	0.301
195.42	-17.080
195.79	-45.168
196.15	-25.612
196.52	-3.246
196.89	-14.723
197.26	-20.559
197.63	-19.759
198.00	22.233
198.36	-35.329
198.73	6.290
199.10	15.537
199.47	43.042
199.84	41.260
200.20	47.390
200.57	39.044
200.94	74.586
201.31	71.908
201.68	69.455
202.04	62.571
202.41	72.283
202.78	55.138
203.15	53.163
203.51	45.001
203.88	45.015
204.25	35.463
204.62	24.657
204.98	11.345
205.35	-6.636
205.72	-29.559
206.09	-98.271
206.46	-86.961
206.82	-136.213
207.19	-152.313
207.56	-147.167
207.92	-124.682
208.29	-73.273
208.66	-52.559
209.03	-79.676
209.39	-33.234
209.76	-9.590
210.13	14.740
210.50	31.968
210.86	35.171
211.23	43.492
211.60	-4.861
211.96	-10.856
212.33	-39.585
212.70	2485.228
213.07	108.241
213.43	51.431
213.80	335.908
214.17	113.909
214.53	803.800
214.90	-44.183
215.27	-8.546
215.63	-4.149
216.00	-15.116
216.37	14.652
216.74	23.628
217.10	17.549
217.47	2.735
217.84	7.284
218.20	1.146
218.57	9.760
218.94	6.581
219.30	0.665
219.67	1.836
220.04	12.596
220.40	6.435
220.77	1.722
221.13	-8.075
221.50	-3.557
221.87	-10.304
222.23	-2.831
222.60	-5.180
222.97	-10.745
223.33	-18.367
223.70	-16.111
224.07	-23.865
224.43	-16.755
224.80	-8.343
225.16	-4.285
225.53	-1.659
225.90	-0.843
226.26	-0.414
226.63	-0.566
226.99	0.955
227.36	4.173
227.73	3.596
228.09	4.272
228.46	4.443
228.82	1.057
229.19	2.969
229.56	1.779
229.92	2.324
230.29	3.020
230.65	5.079
231.02	2.878
231.38	2.510
231.75	2.934
232.12	4.057
232.48	2.853
232.85	5.419
233.21	3.818
233.58	5.779
233.94	7.963
234.31	8.356
234.68	5.608
235.04	8.170
235.41	6.800
235.77	6.629
236.14	6.216
236.50	7.226
236.87	7.590
237.23	6.301
237.60	4.928
237.96	2.964
238.33	0.970
238.69	1.532
239.06	0.873
239.42	1.499
239.79	1.696
240.15	1.775
240.52	1.353
240.88	0.949
241.25	1.083
241.61	0.655
241.98	1.418
242.34	1.271
242.71	0.871
243.07	0.962
243.44	0.950
243.80	0.968
244.17	0.729
244.53	0.477
244.90	0.550
245.26	0.916
245.63	1.149
245.99	0.864
246.36	1.184
246.72	1.170
247.09	0.922
247.45	1.049
247.81	0.947
248.18	1.397
248.54	1.725
248.91	1.312
249.27	0.250
249.64	0.276
250.00	0.200
250.36	-0.005
250.73	0.005
251.09	-0.140
251.46	-0.273
251.82	0.308
252.19	-0.404
252.55	-0.695
252.91	0.158
253.28	1.107
253.64	1.596
254.01	1.352
254.37	1.201
254.73	1.417
255.10	1.733
255.46	1.888
255.83	1.488
256.19	1.717
256.55	1.829
256.92	1.481
257.28	1.440
257.65	1.329
258.01	1.335
258.37	1.478
258.74	1.638
259.10	1.963
259.46	1.775
259.83	1.933
260.19	2.111
260.55	1.992
260.92	2.169
261.28	1.960
261.64	1.833
262.01	1.758
262.37	1.607
262.73	1.054
263.10	0.394
263.46	0.588
263.82	0.437
264.19	-0.102
264.55	0.272
264.91	0.556
265.28	0.947
265.64	0.776
266.00	0.779
266.37	1.035
266.73	1.265
267.09	1.331
267.46	0.905
267.82	0.916
268.18	0.955
268.54	0.766
268.91	0.774
269.27	0.538
269.63	0.633
270.00	0.744
270.36	0.613
270.72	0.491
271.08	0.436
271.45	0.604
271.81	0.851
272.17	1.430
272.53	1.579
272.90	1.424
273.26	1.557
273.62	1.726
273.98	2.237
274.35	2.344
274.71	2.541
275.07	2.840
275.43	3.052
275.80	2.919
276.16	2.542
276.52	2.572
276.88	2.465
277.25	2.334
277.61	2.298
277.97	1.749
278.33	1.659
278.69	1.407
279.06	1.308
279.42	1.264
279.78	1.271
280.14	1.110
280.50	1.211
280.87	1.395
281.23	1.439
281.59	1.447
281.95	1.604
282.31	1.676
282.68	2.074
283.04	1.862
283.40	1.620
283.76	1.532
284.12	1.684
284.48	1.499
284.85	1.368
285.21	1.470
285.57	1.390
285.93	1.268
286.29	1.226
286.65	0.964
287.02	1.316
287.38	1.474
287.74	1.513
288.10	1.359
288.46	1.358
288.82	1.216
289.18	0.892
289.54	0.786
289.91	0.833
290.27	0.997
290.63	1.204
290.99	1.038
291.35	1.199
291.71	1.067
292.07	1.075
292.43	1.197
292.79	1.589
293.16	1.940
293.52	2.252
293.88	2.469
294.24	2.445
294.60	2.528
294.96	2.586
295.32	2.598
295.68	2.627
296.04	2.876
296.40	2.983
296.76	3.040
297.12	3.276
297.49	3.401
297.85	3.717
298.21	3.807
298.57	3.960
298.93	4.231
299.29	4.626
299.65	5.102
300.01	5.335
300.37	5.551
300.73	5.800
301.09	6.056
301.45	6.105
301.81	6.178
302.17	6.493
302.53	6.500
302.89	6.633
303.25	6.563
303.61	6.676
303.97	6.784
304.33	7.197
304.69	7.638
305.05	7.742
305.41	8.150
305.77	8.191
306.13	8.484
306.49	8.756
306.85	8.877
307.21	8.972
307.57	9.008
307.93	9.116
308.29	9.085
308.65	8.864
309.01	8.912
309.37	8.824
309.73	8.971
310.09	8.958
310.45	8.985
310.81	9.039
311.17	9.078
311.53	9.303
311.89	9.396
312.25	9.434
312.61	9.638
312.96	9.793
313.32	9.945
313.68	9.956
314.04	9.980
314.40	10.045
314.76	10.097
315.12	10.339
315.48	10.357
315.84	10.190
316.20	10.093
316.56	10.108
316.92	9.913
317.27	10.031
317.63	10.062
317.99	9.990
318.35	10.082
318.71	10.243
319.07	10.340
319.43	10.071
319.79	10.193
320.15	10.263
320.50	10.194
320.86	10.183
321.22	10.198
321.58	9.975
321.94	9.926
322.30	9.977
322.66	9.775
323.01	9.504
323.37	9.785
323.73	9.696
324.09	9.737
324.45	9.684
324.81	9.802
325.17	9.744
325.52	9.862
325.88	9.768
326.24	9.578
326.60	9.606
326.96	9.789
327.31	9.569
327.67	9.740
328.03	9.721
328.39	9.697
328.75	9.694
329.11	9.622
329.46	9.612
329.82	9.779
330.18	9.862
330.54	9.789
330.90	9.730
331.25	9.678
331.61	9.453
331.97	9.355
332.33	9.388
332.68	9.329
333.04	9.383
333.40	9.431
333.76	9.329
334.11	9.204
334.47	9.333
334.83	9.193
335.19	9.198
335.54	9.163
335.90	9.130
336.26	9.079
336.62	9.066
336.97	8.925
337.33	8.901
337.69	8.907
338.05	8.995
338.40	8.942
338.76	8.969
339.12	8.896
339.48	8.881
339.83	8.917
340.19	8.913
340.55	8.886
340.90	8.895
341.26	8.771
341.62	8.703
341.97	8.678
342.33	8.668
342.69	8.768
343.04	8.854
343.40	8.886
343.76	8.882
344.12	8.811
344.47	8.757
344.83	8.688
345.19	8.721
345.54	8.714
345.90	8.653
346.26	8.580
346.61	8.402
346.97	8.342
347.32	8.379
347.68	8.406
348.04	8.412
348.39	8.434
348.75	8.466
349.11	8.393
349.46	8.457
349.82	8.462
350.18	8.467
350.53	8.581
350.89	8.632
351.24	8.507
351.60	8.326
351.96	8.312
352.31	8.296
352.67	8.350
353.02	8.448
353.38	8.337
353.74	8.334
354.09	8.328
354.45	8.181
354.80	8.028
355.16	8.118
355.52	8.163
355.87	8.139
356.23	8.106
356.58	7.980
356.94	7.900
357.29	7.944
357.65	7.880
358.00	7.804
358.36	7.794
358.72	7.830
359.07	7.735
359.43	7.778
359.78	7.798
360.14	7.830
360.49	7.818
360.85	7.809
361.20	7.807
361.56	7.791
361.91	7.826
362.27	7.866
362.62	7.876
362.98	7.908
363.33	7.895
363.69	7.916
364.04	7.852
364.40	7.884
364.75	7.848
365.11	7.802
365.46	7.777
365.82	7.706
366.17	7.633
366.53	7.564
366.88	7.552
367.24	7.507
367.59	7.433
367.95	7.449
368.30	7.402
368.66	7.401
369.01	7.383
369.37	7.421
369.72	7.470
370.08	7.470
370.43	7.483
370.78	7.454
371.14	7.458
371.49	7.422
371.85	7.326
372.20	7.363
372.56	7.370
372.91	7.344
373.26	7.311
373.62	7.211
373.97	7.255
374.33	7.207
374.68	7.241
375.03	7.198
375.39	7.133
375.74	7.155
376.10	7.147
376.45	7.194
376.80	7.198
377.16	7.195
377.51	7.248
377.87	7.225
378.22	7.256
378.57	7.215
378.93	7.181
379.28	7.246
379.63	7.252
379.99	7.225
380.34	7.162
380.70	7.163
381.05	7.162
381.40	7.135
381.76	7.091
382.11	7.069
382.46	7.051
382.82	6.984
383.17	6.923
383.52	6.883
383.88	6.817
384.23	6.793
384.58	6.767
384.94	6.727
385.29	6.705
385.64	6.690
385.99	6.660
386.35	6.662
386.70	6.673
387.05	6.668
387.41	6.660
387.76	6.615
388.11	6.557
388.47	6.496
388.82	6.488
389.17	6.473
389.52	6.438
389.88	6.462
390.23	6.442
390.58	6.402
390.93	6.383
391.29	6.391
391.64	6.409
391.99	6.451
392.34	6.510
392.70	6.491
393.05	6.455
393.40	6.447
393.75	6.409
394.11	6.371
394.46	6.366
394.81	6.371
395.16	6.355
395.52	6.356
395.87	6.289
396.22	6.185
396.57	6.111
396.92	6.085
397.28	6.041
397.63	5.976
397.98	5.951
398.33	5.949
398.68	5.910
399.04	5.834
399.39	5.781
399.74	5.759
400.09	5.794
400.44	5.807
400.80	5.770
401.15	5.735
401.50	5.767
401.85	5.717
402.20	5.720
402.55	5.685
402.90	5.672
403.26	5.640
403.61	5.598
403.96	5.533
404.31	5.513
404.66	5.536
405.01	5.552
405.36	5.506
405.72	5.506
406.07	5.455
406.42	5.467
406.77	5.456
407.12	5.449
407.47	5.470
407.82	5.465
408.17	5.428
408.53	5.397
408.88	5.407
409.23	5.376
409.58	5.400
409.93	5.384
410.28	5.394
410.63	5.397
410.98	5.391
411.33	5.371
411.68	5.355
412.03	5.324
412.38	5.303
412.73	5.229
413.09	5.220
413.44	5.147
413.79	5.146
414.14	5.106
414.49	5.064
414.84	5.041
415.19	4.996
415.54	4.973
415.89	4.941
416.24	4.919
416.59	4.915
416.94	4.910
417.29	4.891
417.64	4.864
417.99	4.849
418.34	4.837
418.69	4.827
419.04	4.818
419.39	4.816
419.74	4.822
420.09	4.804
420.44	4.796
420.79	4.782
421.14	4.768
421.49	4.771
421.84	4.756
422.19	4.751
422.54	4.751
422.89	4.751
423.24	4.742
423.59	4.755
423.94	4.778
424.29	4.809
424.64	4.810
424.99	4.875
425.34	4.897
425.68	4.930
426.03	4.969
426.38	4.985
426.73	5.011
427.08	5.024
427.43	5.020
427.78	5.010
428.13	4.983
428.48	4.990
428.83	4.955
429.18	4.940
429.53	4.942
429.87	4.927
430.22	4.906
430.57	4.912
430.92	4.912
431.27	4.910
431.62	4.917
431.97	4.929
432.32	4.924
432.67	4.948
433.01	4.938
433.36	4.945
433.71	4.950
434.06	4.985
434.41	4.968
434.76	4.980
435.11	5.001
435.45	4.992
435.80	4.968
436.15	5.001
436.50	4.977
436.85	5.003
437.20	4.979
437.54	4.979
437.89	4.975
438.24	4.979
438.59	4.992
438.94	4.996
439.29	5.010
439.63	5.021
439.98	5.005
440.33	5.009
440.68	5.003
441.03	5.014
441.37	4.999
441.72	4.993
442.07	5.001
442.42	5.001
442.76	4.984
443.11	4.970
443.46	4.961
443.81	4.971
444.16	4.973
444.50	4.965
444.85	4.970
445.20	4.987
445.55	4.997
445.89	4.991
446.24	4.984
446.59	4.995
446.94	5.012
447.28	5.030
447.63	5.019
447.98	5.035
448.32	5.034
448.67	5.033
449.02	5.031
449.37	5.025
449.71	5.038
450.06	5.051
450.41	5.058
450.75	5.061
451.10	5.059
451.45	5.065
451.79	5.088
452.14	5.102
452.49	5.099
452.84	5.093
453.18	5.087
453.53	5.091
453.88	5.087
454.22	5.065
454.57	5.049
454.92	5.038
455.26	5.027
455.61	4.982
455.95	4.953
456.30	4.970
456.65	4.955
456.99	4.948
457.34	4.933
457.69	4.921
458.03	4.918
458.38	4.920
458.73	4.938
459.07	4.949
459.42	4.950
459.76	4.967
460.11	4.955
460.46	4.982
460.80	4.989
461.15	5.009
461.49	5.001
461.84	5.023
462.19	5.032
462.53	5.024
462.88	5.009
463.22	5.023
463.57	5.050
463.91	5.049
464.26	5.049
464.61	5.054
464.95	5.064
465.30	5.102
465.64	5.106
465.99	5.112
466.33	5.128
466.68	5.121
467.02	5.124
467.37	5.111
467.71	5.111
468.06	5.106
468.41	5.088
468.75	5.067
469.10	5.056
469.44	5.038
469.79	5.028
470.13	4.993
470.48	5.021
470.82	5.019
471.17	4.986
471.51	4.985
471.86	4.974
472.20	4.979
472.55	4.963
472.89	4.946
473.23	4.920
473.58	4.906
473.92	4.887
474.27	4.849
474.61	4.828
474.96	4.825
475.30	4.813
475.65	4.802
475.99	4.792
476.34	4.777
476.68	4.758
477.02	4.760
477.37	4.745
477.71	4.752
478.06	4.738
478.40	4.737
478.75	4.762
479.09	4.769
479.43	4.785
479.78	4.810
480.12	4.854
480.47	4.894
480.81	4.932
481.15	4.977
481.50	5.018
481.84	5.079
482.19	5.137
482.53	5.171
482.87	5.178
483.22	5.144
483.56	5.081
483.90	5.002
484.25	4.950
484.59	4.917
484.94	4.866
485.28	4.812
485.62	4.746
485.97	4.667
486.31	4.602
486.65	4.574
487.00	4.583
487.34	4.617
487.68	4.667
488.03	4.685
488.37	4.673
488.71	4.670
489.06	4.666
489.40	4.661
489.74	4.654
490.09	4.649
490.43	4.636
490.77	4.621
491.11	4.621
491.46	4.615
491.80	4.599
492.14	4.582
492.49	4.566
492.83	4.551
493.17	4.525
493.51	4.510
493.86	4.489
494.20	4.478
494.54	4.467
494.88	4.466
495.23	4.454
495.57	4.450
495.91	4.465
496.25	4.471
496.60	4.472
496.94	4.483
497.28	4.466
497.62	4.456
497.97	4.453
498.31	4.467
498.65	4.448
498.99	4.456
499.33	4.464
499.68	4.459
500.02	4.443
500.36	4.430
500.70	4.410
501.04	4.435
501.39	4.442
501.73	4.428
502.07	4.417
502.41	4.421
502.75	4.412
503.09	4.407
503.44	4.381
503.78	4.379
504.12	4.379
504.46	4.384
504.80	4.377
505.14	4.368
505.49	4.386
505.83	4.379
506.17	4.380
506.51	4.374
506.85	4.366
507.19	4.379
507.53	4.381
507.87	4.382
508.22	4.378
508.56	4.385
508.90	4.388
509.24	4.366
509.58	4.376
509.92	4.362
510.26	4.363
510.60	4.336
510.94	4.326
511.28	4.320
511.63	4.314
511.97	4.302
512.31	4.276
512.65	4.271
512.99	4.280
513.33	4.284
513.67	4.269
514.01	4.266
514.35	4.301
514.69	4.308
515.03	4.316
515.37	4.306
515.71	4.312
516.05	4.306
516.39	4.308
516.73	4.300
517.07	4.278
517.41	4.294
517.75	4.291
518.09	4.272
518.43	4.264
518.77	4.250
519.11	4.246
519.45	4.232
519.79	4.233
520.13	4.224
520.47	4.229
520.81	4.225
521.15	4.196
521.49	4.186
521.83	4.178
522.17	4.164
522.51	4.158
522.85	4.165
523.19	4.169
523.53	4.183
523.87	4.205
524.21	4.223
524.55	4.239
524.89	4.265
525.23	4.281
525.57	4.296
525.91	4.313
526.25	4.324
526.58	4.333
526.92	4.351
527.26	4.358
527.60	4.353
527.94	4.344
528.28	4.330
528.62	4.312
528.96	4.305
529.30	4.293
529.64	4.275
529.97	4.260
530.31	4.245
530.65	4.211
530.99	4.180
531.33	4.161
531.67	4.151
532.01	4.154
532.35	4.155
532.68	4.143
533.02	4.134
533.36	4.127
533.70	4.124
534.04	4.116
534.38	4.105
534.71	4.099
535.05	4.090
535.39	4.066
535.73	4.042
536.07	4.031
536.41	4.026
536.74	4.015
537.08	4.028
537.42	4.025
537.76	4.025
538.10	4.040
538.43	4.044
538.77	4.050
539.11	4.063
539.45	4.061
539.79	4.073
540.12	4.068
540.46	4.068
540.80	4.049
541.14	4.046
541.47	4.042
541.81	4.028
542.15	4.014
542.49	3.999
542.82	3.993
543.16	3.994
543.50	3.971
543.84	3.947
544.17	3.921
544.51	3.919
544.85	3.910
545.18	3.894
545.52	3.899
545.86	3.905
546.20	3.905
546.53	3.890
546.87	3.879
547.21	3.878
547.54	3.900
547.88	3.917
548.22	3.902
548.55	3.873
548.89	3.859
549.23	3.852
549.56	3.857
549.90	3.834
550.24	3.823
550.57	3.825
550.91	3.807
551.25	3.780
551.58	3.786
551.92	3.788
552.26	3.804
552.59	3.796
552.93	3.799
553.27	3.766
553.60	3.766
553.94	3.753
554.27	3.737
554.61	3.769
554.95	3.790
555.28	3.791
555.62	3.781
555.95	3.780
556.29	3.793
556.63	3.785
556.96	3.783
557.30	3.796
557.63	3.798
557.97	3.812
558.31	3.769
558.64	3.758
558.98	3.746
559.31	3.743
559.65	3.729
559.98	3.697
560.32	3.696
560.65	3.696
560.99	3.676
561.33	3.677
561.66	3.672
562.00	3.681
562.33	3.668
562.67	3.668
563.00	3.667
563.34	3.690
563.67	3.705
564.01	3.696
564.34	3.699
564.68	3.712
565.01	3.703
565.35	3.707
565.68	3.710
566.02	3.711
566.35	3.714
566.69	3.705
567.02	3.678
567.36	3.701
567.69	3.691
568.03	3.675
568.36	3.673
568.69	3.698
569.03	3.685
569.36	3.676
569.70	3.664
570.03	3.672
570.37	3.676
570.70	3.692
571.04	3.669
571.37	3.663
571.70	3.662
572.04	3.635
572.37	3.612
572.71	3.613
573.04	3.613
573.37	3.613
573.71	3.590
574.04	3.608
574.38	3.591
574.71	3.596
575.04	3.605
575.38	3.632
575.71	3.646
576.05	3.643
576.38	3.641
576.71	3.622
577.05	3.634
577.38	3.627
577.71	3.607
578.05	3.597
578.38	3.591
578.71	3.598
579.05	3.572
579.38	3.568
579.71	3.552
580.05	3.557
580.38	3.568
580.71	3.543
581.05	3.542
581.38	3.534
581.71	3.533
582.05	3.535
582.38	3.482
582.71	3.470
583.04	3.471
583.38	3.479
583.71	3.451
584.04	3.447
584.38	3.444
584.71	3.436
585.04	3.439
585.37	3.424
585.71	3.410
586.04	3.433
586.37	3.420
586.70	3.412
587.04	3.426
587.37	3.431
587.70	3.423
588.03	3.394
588.37	3.381
588.70	3.371
589.03	3.376
589.36	3.357
589.69	3.346
590.03	3.336
590.36	3.339
590.69	3.307
591.02	3.303
591.35	3.291
591.69	3.290
592.02	3.288
592.35	3.283
592.68	3.275
593.01	3.273
593.35	3.269
593.68	3.247
594.01	3.247
594.34	3.256
594.67	3.222
595.00	3.204
595.34	3.206
595.67	3.163
596.00	3.136
596.33	3.118
596.66	3.082
596.99	3.035
597.32	3.037
597.65	2.967
597.99	2.920
598.32	2.886
598.65	2.840
598.98	2.805
599.31	2.820
599.64	2.828
599.97	2.830
600.30	2.804
600.63	2.813
600.96	2.822
601.30	2.816
601.63	2.795
601.96	2.809
602.29	2.842
602.62	2.852
602.95	2.836
603.28	2.807
603.61	2.746
603.94	2.752
604.27	2.738
604.60	2.708
604.93	2.711
605.26	2.706
605.59	2.669
605.92	2.647
606.25	2.664
606.58	2.656
606.91	2.628
607.24	2.641
607.57	2.636
607.90	2.633
608.23	2.617
608.56	2.583
608.89	2.560
609.22	2.540
609.55	2.515
609.88	2.434
610.21	2.382
610.54	2.360
610.87	2.294
611.20	2.241
611.53	2.171
611.86	2.141
612.19	2.121
612.52	2.084
612.85	2.082
613.18	2.030
613.51	1.975
613.84	1.941
614.17	1.935
614.49	1.963
614.82	1.964
615.15	1.999
615.48	1.975
615.81	1.977
616.14	1.966
616.47	1.944
616.80	1.929
617.13	1.953
617.46	1.972
617.78	1.914
618.11	1.888
618.44	1.881
618.77	1.821
619.10	1.793
619.43	1.791
619.76	1.758
620.09	1.722
620.41	1.729
620.74	1.718
621.07	1.712
621.40	1.782
621.73	1.814
622.06	1.849
622.38	1.890
622.71	1.921
623.04	1.906
623.37	1.983
623.70	2.020
624.02	2.026
624.35	2.029
624.68	2.059
625.01	2.069
625.34	2.040
625.66	2.016
625.99	2.001
626.32	1.982
626.65	2.000
626.98	1.968
627.30	1.956
627.63	1.959
627.96	1.962
628.29	1.946
628.61	1.862
628.94	1.838
629.27	1.796
629.60	1.768
629.92	1.774
630.25	1.723
630.58	1.686
630.91	1.658
631.23	1.597
631.56	1.583
631.89	1.556
632.21	1.617
632.54	1.615
632.87	1.624
633.19	1.602
633.52	1.534
633.85	1.503
634.18	1.496
634.50	1.511
634.83	1.518
635.16	1.481
635.48	1.461
635.81	1.376
636.14	1.360
636.46	1.334
636.79	1.309
637.11	1.338
637.44	1.330
637.77	1.302
638.09	1.238
638.42	1.192
638.75	1.169
639.07	1.144
639.40	1.136
639.73	1.115
640.05	1.090
640.38	1.086
640.70	1.051
641.03	1.052
641.36	1.030
641.68	1.021
642.01	1.046
642.33	1.108
642.66	1.077
642.98	1.081
643.31	1.062
643.64	1.091
643.96	1.111
644.29	1.126
644.61	1.089
644.94	1.145
645.26	1.182
645.59	1.198
645.91	1.164
646.24	1.212
646.56	1.250
646.89	1.259
647.22	1.254
647.54	1.252
647.87	1.262
648.19	1.298
648.52	1.264
648.84	1.258
649.17	1.281
649.49	1.266
649.82	1.241
650.14	1.188
650.47	1.187
650.79	1.164
651.11	1.141
651.44	1.149
651.76	1.179
652.09	1.221
652.41	1.250
652.74	1.197
653.06	1.195
653.39	1.209
653.71	1.237
654.04	1.277
654.36	1.305
654.68	1.340
655.01	1.354
655.33	1.359
655.66	1.321
655.98	1.334
656.30	1.358
656.63	1.362
656.95	1.352
657.28	1.369
657.60	1.366
657.92	1.342
658.25	1.310
658.57	1.252
