OOIBase32 Version 2.0.0.6 Data File
++++++++++++++++++++++++++++++++++++
Date: 01-19-2012, 17:13:51
User: Valued Ocean Optics Customer
Spectrometer Serial Number: USB2E2917
Spectrometer Channel: Master
Integration Time (msec): 6
Spectra Averaged: 10
Boxcar Smoothing: 5
Correct for Electrical Dark: Enabled
Time Normalized: Disabled
Dual-beam Reference: Disabled
Reference Channel: Master
Temperature: Not acquired
Spectrometer Type: S2000
ADC Type: USB2000
Number of Pixels in File: 2048
Graph Title: 
>>>>>Begin Spectral Data<<<<<
180.30	0.000
180.67	0.000
181.03	125.089
181.40	6.088
181.77	-1.921
182.14	-165.627
182.51	3.551
182.88	183.836
183.25	143.756
183.62	113.644
183.99	-853.454
184.36	25.885
184.73	120.207
185.10	121.940
185.46	99.585
185.83	143.608
186.20	-361.235
186.57	-22.331
186.94	110.370
187.31	65.336
187.68	16.984
188.05	88.307
188.42	68.636
188.78	74.499
189.15	68.972
189.52	60.557
189.89	63.762
190.26	41.587
190.63	42.647
191.00	33.043
191.37	25.461
191.73	23.182
192.10	10.818
192.47	3.467
192.84	12.567
193.21	14.428
193.58	1.040
193.94	-4.875
194.31	2.223
194.68	-12.081
195.05	-24.577
195.42	-26.794
195.79	-34.790
196.15	-16.892
196.52	-11.639
196.89	-30.758
197.26	-38.427
197.63	-36.130
198.00	-43.414
198.36	-38.072
198.73	-42.544
199.10	-24.269
199.47	-18.186
199.84	-20.599
200.20	-14.290
200.57	-38.035
200.94	-23.996
201.31	-7.525
201.68	7.874
202.04	9.045
202.41	7.801
202.78	5.250
203.15	17.522
203.51	21.121
203.88	28.134
204.25	30.177
204.62	46.677
204.98	36.516
205.35	29.618
205.72	24.520
206.09	35.933
206.46	42.025
206.82	46.442
207.19	35.714
207.56	22.189
207.92	27.507
208.29	-4.111
208.66	-4.393
209.03	7.077
209.39	7.963
209.76	11.135
210.13	16.352
210.50	21.714
210.86	32.771
211.23	40.166
211.60	48.001
211.96	49.473
212.33	54.025
212.70	46.488
213.07	47.017
213.43	49.100
213.80	46.770
214.17	46.767
214.53	37.092
214.90	37.340
215.27	34.274
215.63	29.870
216.00	25.313
216.37	19.998
216.74	28.466
217.10	27.542
217.47	22.265
217.84	21.707
218.20	24.297
218.57	24.971
218.94	13.173
219.30	6.806
219.67	8.430
220.04	-1.286
220.40	2.573
220.77	-6.479
221.13	-5.365
221.50	-4.333
221.87	-5.647
222.23	-4.820
222.60	-6.079
222.97	-3.771
223.33	2.543
223.70	0.974
224.07	4.879
224.43	3.495
224.80	2.643
225.16	4.595
225.53	5.453
225.90	5.901
226.26	4.904
226.63	5.035
226.99	5.504
227.36	4.293
227.73	4.142
228.09	2.997
228.46	4.215
228.82	5.863
229.19	5.169
229.56	3.652
229.92	2.456
230.29	1.657
230.65	1.651
231.02	1.149
231.38	0.982
231.75	0.165
232.12	0.957
232.48	1.541
232.85	2.468
233.21	0.879
233.58	1.175
233.94	1.803
234.31	2.259
234.68	0.794
235.04	2.514
235.41	1.208
235.77	1.131
236.14	2.106
236.50	1.352
236.87	-0.212
237.23	1.301
237.60	1.291
237.96	2.050
238.33	2.523
238.69	3.860
239.06	2.947
239.42	3.397
239.79	3.164
240.15	2.914
240.52	2.628
240.88	2.697
241.25	2.508
241.61	2.593
241.98	1.959
242.34	1.771
242.71	1.375
243.07	1.259
243.44	1.472
243.80	1.925
244.17	1.881
244.53	2.032
244.90	1.587
245.26	1.700
245.63	1.713
245.99	2.101
246.36	2.122
246.72	2.154
247.09	2.172
247.45	2.127
247.81	1.978
248.18	1.805
248.54	1.784
248.91	2.118
249.27	1.563
249.64	1.492
250.00	1.194
250.36	1.272
250.73	1.227
251.09	1.559
251.46	1.660
251.82	1.353
252.19	1.606
252.55	1.216
252.91	1.038
253.28	1.831
253.64	1.822
254.01	1.911
254.37	1.739
254.73	1.690
255.10	1.336
255.46	1.265
255.83	1.299
256.19	1.433
256.55	1.480
256.92	1.508
257.28	1.273
257.65	1.150
258.01	1.235
258.37	1.254
258.74	1.374
259.10	1.539
259.46	1.518
259.83	1.599
260.19	1.588
260.55	1.415
260.92	1.633
261.28	1.830
261.64	2.122
262.01	1.997
262.37	2.098
262.73	2.081
263.10	1.893
263.46	1.989
263.82	2.076
264.19	1.810
264.55	2.138
264.91	2.216
265.28	2.287
265.64	2.311
266.00	2.320
266.37	1.978
266.73	1.988
267.09	2.048
267.46	1.756
267.82	1.746
268.18	1.706
268.54	1.608
268.91	1.349
269.27	1.187
269.63	1.055
270.00	1.114
270.36	1.238
270.72	1.318
271.08	1.250
271.45	1.459
271.81	1.377
272.17	1.640
272.53	1.746
272.90	1.464
273.26	1.443
273.62	1.335
273.98	1.415
274.35	1.406
274.71	1.240
275.07	1.281
275.43	1.159
275.80	1.281
276.16	1.318
276.52	1.174
276.88	1.504
277.25	1.644
277.61	1.900
277.97	1.748
278.33	1.832
278.69	1.697
279.06	1.710
279.42	1.875
279.78	1.691
280.14	1.352
280.50	1.486
280.87	1.517
281.23	1.436
281.59	1.270
281.95	1.245
282.31	1.246
282.68	1.308
283.04	1.199
283.40	1.139
283.76	1.302
284.12	1.712
284.48	1.661
284.85	1.503
285.21	1.450
285.57	1.571
285.93	1.425
286.29	1.386
286.65	1.567
287.02	1.667
287.38	1.673
287.74	1.653
288.10	1.521
288.46	1.802
288.82	2.273
289.18	2.401
289.54	2.448
289.91	2.742
290.27	2.950
290.63	2.989
290.99	3.154
291.35	3.428
291.71	3.524
292.07	3.538
292.43	3.557
292.79	3.582
293.16	3.998
293.52	4.092
293.88	4.464
294.24	4.812
294.60	4.958
294.96	5.258
295.32	5.614
295.68	6.058
296.04	6.608
296.40	6.910
296.76	7.200
297.12	7.364
297.49	7.871
297.85	8.295
298.21	8.593
298.57	9.247
298.93	9.588
299.29	9.924
299.65	10.188
300.01	10.479
300.37	11.001
300.73	11.459
301.09	11.829
301.45	12.065
301.81	12.091
302.17	12.598
302.53	12.595
302.89	12.929
303.25	13.223
303.61	13.462
303.97	13.671
304.33	13.804
304.69	13.957
305.05	14.300
305.41	14.795
305.77	15.286
306.13	15.402
306.49	15.766
306.85	15.941
307.21	16.151
307.57	16.462
307.93	16.572
308.29	16.687
308.65	16.890
309.01	17.126
309.37	17.108
309.73	17.122
310.09	17.117
310.45	17.170
310.81	17.243
311.17	17.368
311.53	17.499
311.89	17.606
312.25	17.776
312.61	17.923
312.96	17.820
313.32	17.941
313.68	17.974
314.04	18.146
314.40	18.248
314.76	18.483
315.12	18.425
315.48	18.358
315.84	18.368
316.20	18.302
316.56	18.186
316.92	18.258
317.27	18.158
317.63	18.267
317.99	18.371
318.35	18.262
318.71	17.998
319.07	17.998
319.43	17.989
319.79	18.022
320.15	18.074
320.50	18.145
320.86	18.074
321.22	18.225
321.58	18.016
321.94	17.846
322.30	17.895
322.66	17.984
323.01	18.085
323.37	18.152
323.73	18.112
324.09	18.074
324.45	17.857
324.81	17.783
325.17	17.601
325.52	17.703
325.88	17.700
326.24	17.785
326.60	17.758
326.96	17.637
327.31	17.517
327.67	17.474
328.03	17.452
328.39	17.609
328.75	17.692
329.11	17.695
329.46	17.817
329.82	17.756
330.18	17.651
330.54	17.669
330.90	17.666
331.25	17.645
331.61	17.742
331.97	17.692
332.33	17.562
332.68	17.440
333.04	17.512
333.40	17.335
333.76	17.315
334.11	17.234
334.47	17.150
334.83	17.008
335.19	16.943
335.54	16.837
335.90	16.744
336.26	16.719
336.62	16.694
336.97	16.474
337.33	16.491
337.69	16.437
338.05	16.437
338.40	16.354
338.76	16.305
339.12	16.269
339.48	16.071
339.83	16.163
340.19	16.141
340.55	16.075
340.90	16.192
341.26	16.085
341.62	16.107
341.97	16.050
342.33	16.013
342.69	16.038
343.04	16.018
343.40	16.073
343.76	15.927
344.12	15.854
344.47	15.803
344.83	15.763
345.19	15.768
345.54	15.758
345.90	15.782
346.26	15.748
346.61	15.810
346.97	15.779
347.32	15.708
347.68	15.734
348.04	15.863
348.39	15.898
348.75	15.757
349.11	15.764
349.46	15.655
349.82	15.568
350.18	15.536
350.53	15.406
350.89	15.355
351.24	15.366
351.60	15.360
351.96	15.125
352.31	15.088
352.67	15.128
353.02	15.052
353.38	15.083
353.74	15.066
354.09	15.087
354.45	15.104
354.80	15.076
355.16	15.067
355.52	15.044
355.87	15.080
356.23	15.006
356.58	14.965
356.94	14.885
357.29	14.787
357.65	14.758
358.00	14.660
358.36	14.572
358.72	14.522
359.07	14.472
359.43	14.344
359.78	14.287
360.14	14.261
360.49	14.249
360.85	14.207
361.20	14.252
361.56	14.206
361.91	14.249
362.27	14.256
362.62	14.211
362.98	14.219
363.33	14.227
363.69	14.214
364.04	14.183
364.40	14.144
364.75	14.170
365.11	14.048
365.46	14.002
365.82	13.949
366.17	13.875
366.53	13.881
366.88	13.782
367.24	13.735
367.59	13.690
367.95	13.733
368.30	13.685
368.66	13.592
369.01	13.578
369.37	13.590
369.72	13.517
370.08	13.469
370.43	13.415
370.78	13.403
371.14	13.393
371.49	13.348
371.85	13.261
372.20	13.200
372.56	13.156
372.91	13.077
373.26	13.027
373.62	12.973
373.97	13.002
374.33	13.014
374.68	12.955
375.03	12.906
375.39	12.871
375.74	12.827
376.10	12.821
376.45	12.822
376.80	12.816
377.16	12.799
377.51	12.782
377.87	12.691
378.22	12.594
378.57	12.570
378.93	12.537
379.28	12.501
379.63	12.439
379.99	12.366
380.34	12.378
380.70	12.353
381.05	12.284
381.40	12.253
381.76	12.225
382.11	12.209
382.46	12.193
382.82	12.163
383.17	12.096
383.52	12.050
383.88	12.060
384.23	11.960
384.58	11.962
384.94	11.962
385.29	11.964
385.64	11.921
385.99	11.886
386.35	11.795
386.70	11.704
387.05	11.660
387.41	11.607
387.76	11.517
388.11	11.507
388.47	11.408
388.82	11.314
389.17	11.226
389.52	11.161
389.88	11.102
390.23	11.077
390.58	11.037
390.93	11.021
391.29	11.012
391.64	10.969
391.99	10.882
392.34	10.846
392.70	10.799
393.05	10.782
393.40	10.768
393.75	10.713
394.11	10.669
394.46	10.608
394.81	10.543
395.16	10.495
395.52	10.439
395.87	10.435
396.22	10.399
396.57	10.399
396.92	10.368
397.28	10.336
397.63	10.311
397.98	10.256
398.33	10.261
398.68	10.227
399.04	10.176
399.39	10.175
399.74	10.081
400.09	10.028
400.44	9.966
400.80	9.885
401.15	9.788
401.50	9.770
401.85	9.776
402.20	9.733
402.55	9.715
402.90	9.686
403.26	9.632
403.61	9.638
403.96	9.595
404.31	9.580
404.66	9.569
405.01	9.579
405.36	9.538
405.72	9.492
406.07	9.437
406.42	9.437
406.77	9.417
407.12	9.373
407.47	9.332
407.82	9.320
408.17	9.243
408.53	9.221
408.88	9.177
409.23	9.091
409.58	9.015
409.93	8.992
410.28	8.931
410.63	8.867
410.98	8.814
411.33	8.778
411.68	8.730
412.03	8.695
412.38	8.647
412.73	8.628
413.09	8.627
413.44	8.619
413.79	8.582
414.14	8.532
414.49	8.496
414.84	8.481
415.19	8.435
415.54	8.406
415.89	8.380
416.24	8.346
416.59	8.299
416.94	8.270
417.29	8.233
417.64	8.203
417.99	8.185
418.34	8.184
418.69	8.175
419.04	8.180
419.39	8.165
419.74	8.147
420.09	8.126
420.44	8.124
420.79	8.122
421.14	8.116
421.49	8.113
421.84	8.119
422.19	8.097
422.54	8.080
422.89	8.058
423.24	8.052
423.59	8.037
423.94	8.049
424.29	8.057
424.64	8.047
424.99	8.049
425.34	8.061
425.68	8.064
426.03	8.081
426.38	8.101
426.73	8.112
427.08	8.118
427.43	8.157
427.78	8.145
428.13	8.149
428.48	8.161
428.83	8.148
429.18	8.123
429.53	8.096
429.87	8.082
430.22	8.061
430.57	8.059
430.92	8.032
431.27	8.026
431.62	8.019
431.97	8.001
432.32	7.995
432.67	8.011
433.01	8.034
433.36	8.029
433.71	8.041
434.06	8.042
434.41	8.024
434.76	8.046
435.11	8.050
435.45	8.033
435.80	8.009
436.15	7.995
436.50	7.977
436.85	7.947
437.20	7.939
437.54	7.908
437.89	7.895
438.24	7.911
438.59	7.897
438.94	7.880
439.29	7.894
439.63	7.908
439.98	7.895
440.33	7.882
440.68	7.874
441.03	7.866
441.37	7.861
441.72	7.853
442.07	7.836
442.42	7.832
442.76	7.810
443.11	7.806
443.46	7.808
443.81	7.802
444.16	7.803
444.50	7.784
444.85	7.786
445.20	7.783
445.55	7.789
445.89	7.779
446.24	7.766
446.59	7.775
446.94	7.758
447.28	7.732
447.63	7.742
447.98	7.734
448.32	7.756
448.67	7.728
449.02	7.714
449.37	7.685
449.71	7.680
450.06	7.680
450.41	7.654
450.75	7.648
451.10	7.626
451.45	7.594
451.79	7.590
452.14	7.571
452.49	7.567
452.84	7.563
453.18	7.559
453.53	7.532
453.88	7.513
454.22	7.488
454.57	7.482
454.92	7.483
455.26	7.462
455.61	7.441
455.95	7.417
456.30	7.399
456.65	7.386
456.99	7.364
457.34	7.353
457.69	7.351
458.03	7.362
458.38	7.356
458.73	7.336
459.07	7.331
459.42	7.334
459.76	7.346
460.11	7.355
460.46	7.356
460.80	7.354
461.15	7.362
461.49	7.358
461.84	7.354
462.19	7.334
462.53	7.345
462.88	7.371
463.22	7.360
463.57	7.352
463.91	7.346
464.26	7.366
464.61	7.377
464.95	7.366
465.30	7.354
465.64	7.347
465.99	7.349
466.33	7.350
466.68	7.329
467.02	7.313
467.37	7.296
467.71	7.294
468.06	7.269
468.41	7.272
468.75	7.263
469.10	7.250
469.44	7.236
469.79	7.238
470.13	7.236
470.48	7.226
470.82	7.234
471.17	7.240
471.51	7.222
471.86	7.211
472.20	7.181
472.55	7.157
472.89	7.162
473.23	7.152
473.58	7.136
473.92	7.113
474.27	7.116
474.61	7.095
474.96	7.094
475.30	7.085
475.65	7.079
475.99	7.082
476.34	7.070
476.68	7.051
477.02	7.041
477.37	7.023
477.71	7.005
478.06	6.982
478.40	6.981
478.75	6.973
479.09	7.001
479.43	7.090
479.78	7.233
480.12	7.398
480.47	7.558
480.81	7.716
481.15	7.881
481.50	8.055
481.84	8.251
482.19	8.460
482.53	8.660
482.87	8.818
483.22	8.856
483.56	8.795
483.90	8.670
484.25	8.509
484.59	8.321
484.94	8.111
485.28	7.881
485.62	7.616
485.97	7.338
486.31	7.078
486.65	6.860
487.00	6.720
487.34	6.633
487.68	6.596
488.03	6.580
488.37	6.586
488.71	6.593
489.06	6.603
489.40	6.616
489.74	6.629
490.09	6.641
490.43	6.654
490.77	6.660
491.11	6.663
491.46	6.654
491.80	6.649
492.14	6.641
492.49	6.627
492.83	6.616
493.17	6.598
493.51	6.581
493.86	6.586
494.20	6.566
494.54	6.546
494.88	6.546
495.23	6.557
495.57	6.558
495.91	6.547
496.25	6.541
496.60	6.542
496.94	6.557
497.28	6.563
497.62	6.551
497.97	6.561
498.31	6.570
498.65	6.572
498.99	6.555
499.33	6.537
499.68	6.526
500.02	6.541
500.36	6.546
500.70	6.537
501.04	6.531
501.39	6.525
501.73	6.519
502.07	6.515
502.41	6.487
502.75	6.465
503.09	6.462
503.44	6.460
503.78	6.441
504.12	6.415
504.46	6.401
504.80	6.387
505.14	6.375
505.49	6.351
505.83	6.336
506.17	6.344
506.51	6.352
506.85	6.338
507.19	6.320
507.53	6.311
507.87	6.307
508.22	6.305
508.56	6.307
508.90	6.304
509.24	6.306
509.58	6.305
509.92	6.299
510.26	6.303
510.60	6.310
510.94	6.305
511.28	6.302
511.63	6.307
511.97	6.296
512.31	6.289
512.65	6.282
512.99	6.284
513.33	6.274
513.67	6.260
514.01	6.243
514.35	6.222
514.69	6.232
515.03	6.216
515.37	6.204
515.71	6.191
516.05	6.160
516.39	6.146
516.73	6.136
517.07	6.131
517.41	6.128
517.75	6.118
518.09	6.105
518.43	6.092
518.77	6.077
519.11	6.066
519.45	6.058
519.79	6.068
520.13	6.057
520.47	6.051
520.81	6.036
521.15	6.009
521.49	6.009
521.83	6.015
522.17	5.998
522.51	5.997
522.85	5.980
523.19	5.986
523.53	5.984
523.87	6.000
524.21	6.009
524.55	6.057
524.89	6.122
525.23	6.174
525.57	6.226
525.91	6.281
526.25	6.339
526.58	6.396
526.92	6.443
527.26	6.462
527.60	6.448
527.94	6.396
528.28	6.294
528.62	6.162
528.96	6.033
529.30	5.964
529.64	5.885
529.97	5.803
530.31	5.715
530.65	5.636
530.99	5.578
531.33	5.549
531.67	5.567
532.01	5.617
532.35	5.675
532.68	5.733
533.02	5.717
533.36	5.715
533.70	5.699
534.04	5.693
534.38	5.656
534.71	5.631
535.05	5.614
535.39	5.595
535.73	5.567
536.07	5.560
536.41	5.553
536.74	5.545
537.08	5.538
537.42	5.540
537.76	5.529
538.10	5.549
538.43	5.559
538.77	5.569
539.11	5.571
539.45	5.587
539.79	5.587
540.12	5.583
540.46	5.576
540.80	5.566
541.14	5.552
541.47	5.545
541.81	5.531
542.15	5.512
542.49	5.491
542.82	5.472
543.16	5.444
543.50	5.440
543.84	5.424
544.17	5.419
544.51	5.407
544.85	5.406
545.18	5.385
545.52	5.369
545.86	5.367
546.20	5.369
546.53	5.363
546.87	5.363
547.21	5.339
547.54	5.325
547.88	5.313
548.22	5.316
548.55	5.305
548.89	5.324
549.23	5.322
549.56	5.322
549.90	5.315
550.24	5.318
550.57	5.314
550.91	5.314
551.25	5.306
551.58	5.308
551.92	5.297
552.26	5.299
552.59	5.271
552.93	5.270
553.27	5.266
553.60	5.262
553.94	5.246
554.27	5.236
554.61	5.226
554.95	5.241
555.28	5.231
555.62	5.222
555.95	5.220
556.29	5.239
556.63	5.237
556.96	5.243
557.30	5.245
557.63	5.242
557.97	5.237
558.31	5.247
558.64	5.256
558.98	5.251
559.31	5.255
559.65	5.242
559.98	5.228
560.32	5.233
560.65	5.228
560.99	5.212
561.33	5.200
561.66	5.198
562.00	5.185
562.33	5.178
562.67	5.180
563.00	5.181
563.34	5.164
563.67	5.162
564.01	5.128
564.34	5.119
564.68	5.123
565.01	5.129
565.35	5.119
565.68	5.117
566.02	5.105
566.35	5.096
566.69	5.077
567.02	5.091
567.36	5.072
567.69	5.074
568.03	5.058
568.36	5.043
568.69	5.013
569.03	4.998
569.36	4.982
569.70	4.962
570.03	4.941
570.37	4.920
570.70	4.901
571.04	4.903
571.37	4.895
571.70	4.902
572.04	4.886
572.37	4.896
572.71	4.898
573.04	4.894
573.37	4.887
573.71	4.898
574.04	4.908
574.38	4.903
574.71	4.894
575.04	4.882
575.38	4.848
575.71	4.849
576.05	4.844
576.38	4.838
576.71	4.846
577.05	4.862
577.38	4.853
577.71	4.862
578.05	4.874
578.38	4.879
578.71	4.883
579.05	4.898
579.38	4.898
579.71	4.892
580.05	4.902
580.38	4.895
580.71	4.867
581.05	4.865
581.38	4.855
581.71	4.840
582.05	4.851
582.38	4.864
582.71	4.862
583.04	4.852
583.38	4.858
583.71	4.851
584.04	4.843
584.38	4.852
584.71	4.855
585.04	4.841
585.37	4.855
585.71	4.847
586.04	4.823
586.37	4.832
586.70	4.834
587.04	4.848
587.37	4.845
587.70	4.854
588.03	4.855
588.37	4.833
588.70	4.866
589.03	4.857
589.36	4.844
589.69	4.864
590.03	4.866
590.36	4.880
590.69	4.894
591.02	4.926
591.35	4.924
591.69	4.916
592.02	4.927
592.35	4.919
592.68	4.921
593.01	4.920
593.35	4.922
593.68	4.930
594.01	4.936
594.34	4.915
594.67	4.894
595.00	4.886
595.34	4.885
595.67	4.897
596.00	4.897
596.33	4.889
596.66	4.903
596.99	4.895
597.32	4.882
597.65	4.877
597.99	4.897
598.32	4.909
598.65	4.916
598.98	4.940
599.31	4.942
599.64	4.938
599.97	4.965
600.30	4.972
600.63	4.984
600.96	4.985
601.30	4.980
601.63	4.958
601.96	4.940
602.29	4.945
602.62	4.943
602.95	4.948
603.28	4.936
603.61	4.934
603.94	4.925
604.27	4.924
604.60	4.947
604.93	4.956
605.26	4.959
605.59	4.967
605.92	4.989
606.25	4.987
606.58	5.014
606.91	5.020
607.24	5.024
607.57	5.046
607.90	5.047
608.23	5.043
608.56	5.042
608.89	5.078
609.22	5.096
609.55	5.071
609.88	5.091
610.21	5.075
610.54	5.087
610.87	5.065
611.20	5.059
611.53	5.070
611.86	5.051
612.19	5.057
612.52	5.029
612.85	5.027
613.18	5.043
613.51	5.047
613.84	5.036
614.17	5.039
614.49	5.067
614.82	5.078
615.15	5.098
615.48	5.114
615.81	5.106
616.14	5.123
616.47	5.083
616.80	5.070
617.13	5.068
617.46	5.110
617.78	5.137
618.11	5.134
618.44	5.153
618.77	5.157
619.10	5.155
619.43	5.195
619.76	5.185
620.09	5.217
620.41	5.233
620.74	5.250
621.07	5.227
621.40	5.204
621.73	5.188
622.06	5.172
622.38	5.158
622.71	5.169
623.04	5.133
623.37	5.128
623.70	5.141
624.02	5.139
624.35	5.103
624.68	5.108
625.01	5.094
625.34	5.096
625.66	5.053
625.99	5.041
626.32	5.037
626.65	5.021
626.98	5.017
627.30	5.033
627.63	5.041
627.96	5.041
628.29	5.048
628.61	5.048
628.94	5.048
629.27	5.070
629.60	5.098
629.92	5.080
630.25	5.097
630.58	5.113
630.91	5.094
631.23	5.115
631.56	5.113
631.89	5.104
632.21	5.116
632.54	5.143
632.87	5.142
633.19	5.117
633.52	5.122
633.85	5.133
634.18	5.141
634.50	5.145
634.83	5.080
635.16	5.083
635.48	5.068
635.81	5.053
636.14	5.046
636.46	5.051
636.79	5.051
637.11	5.079
637.44	5.065
637.77	5.036
638.09	5.039
638.42	5.071
638.75	5.086
639.07	5.060
639.40	5.089
639.73	5.063
640.05	5.064
640.38	5.065
640.70	5.040
641.03	5.072
641.36	5.108
641.68	5.107
642.01	5.117
642.33	5.094
642.66	5.141
642.98	5.155
643.31	5.172
643.64	5.180
643.96	5.175
644.29	5.145
644.61	5.120
644.94	5.094
645.26	5.088
645.59	5.104
645.91	5.135
646.24	5.144
646.56	5.104
646.89	5.080
647.22	5.080
647.54	5.085
647.87	5.133
648.19	5.124
648.52	5.135
648.84	5.121
649.17	5.086
649.49	5.044
649.82	5.010
650.14	5.030
650.47	5.073
650.79	5.067
651.11	5.072
651.44	5.076
651.76	5.089
652.09	5.093
652.41	5.080
652.74	5.104
653.06	5.182
653.39	5.194
653.71	5.186
