OOIBase32 Version 2.0.0.6 Data File
++++++++++++++++++++++++++++++++++++
Date: 01-19-2012, 15:41:40
User: Valued Ocean Optics Customer
Spectrometer Serial Number: USB2E2917
Spectrometer Channel: Master
Integration Time (msec): 5
Spectra Averaged: 10
Boxcar Smoothing: 5
Correct for Electrical Dark: Enabled
Time Normalized: Disabled
Dual-beam Reference: Disabled
Reference Channel: Master
Temperature: Not acquired
Spectrometer Type: S2000
ADC Type: USB2000
Number of Pixels in File: 2048
Graph Title: 
>>>>>Begin Spectral Data<<<<<
180.30	0.000
180.67	0.000
181.03	-304.921
181.40	5.454
181.77	-6.142
182.14	36.133
182.51	82.070
182.88	67.881
183.25	84.312
183.62	81.293
183.99	-25615.972
184.36	86.517
184.73	86.329
185.10	187.345
185.46	55.466
185.83	-71.090
186.20	173.808
186.57	-90.328
186.94	-85.805
187.31	148.020
187.68	262.757
188.05	-15.341
188.42	-26.588
188.78	-22.640
189.15	-17.420
189.52	-39.641
189.89	-23.568
190.26	-49.556
190.63	-15.753
191.00	-22.714
191.37	-18.622
191.73	-15.789
192.10	-1.128
192.47	-14.210
192.84	-13.411
193.21	-8.550
193.58	-3.285
193.94	-24.273
194.31	-19.214
194.68	-35.930
195.05	-24.459
195.42	-18.157
195.79	-16.189
196.15	-20.662
196.52	-23.268
196.89	-26.685
197.26	-33.259
197.63	-73.126
198.00	-26.767
198.36	-31.775
198.73	-26.602
199.10	-41.853
199.47	-26.566
199.84	-3.300
200.20	-2.111
200.57	18.143
200.94	27.441
201.31	26.079
201.68	46.741
202.04	17.842
202.41	14.705
202.78	13.314
203.15	18.449
203.51	1.726
203.88	-6.525
204.25	-4.978
204.62	-9.472
204.98	-16.709
205.35	3.949
205.72	2.472
206.09	16.422
206.46	21.946
206.82	31.020
207.19	42.848
207.56	63.701
207.92	58.714
208.29	67.448
208.66	60.660
209.03	68.963
209.39	72.885
209.76	68.737
210.13	63.850
210.50	60.512
210.86	61.267
211.23	27.528
211.60	0.901
211.96	10.887
212.33	2.708
212.70	-28.788
213.07	-39.641
213.43	-70.305
213.80	-30.392
214.17	-8.017
214.53	3.715
214.90	-7.345
215.27	8.072
215.63	16.967
216.00	24.613
216.37	12.634
216.74	14.313
217.10	10.894
217.47	14.307
217.84	6.815
218.20	-0.916
218.57	-7.917
218.94	3.060
219.30	10.613
219.67	15.494
220.04	4.816
220.40	12.516
220.77	12.850
221.13	10.473
221.50	4.525
221.87	4.103
222.23	2.871
222.60	4.274
222.97	0.722
223.33	5.797
223.70	-0.150
224.07	2.345
224.43	2.444
224.80	3.949
225.16	3.612
225.53	4.996
225.90	6.250
226.26	6.638
226.63	5.065
226.99	3.526
227.36	2.752
227.73	3.358
228.09	2.370
228.46	2.473
228.82	1.883
229.19	2.656
229.56	1.558
229.92	0.820
230.29	-0.510
230.65	1.711
231.02	1.816
231.38	2.207
231.75	2.366
232.12	3.210
232.48	1.933
232.85	3.579
233.21	5.738
233.58	7.701
233.94	7.679
234.31	9.805
234.68	9.197
235.04	9.727
235.41	8.637
235.77	8.600
236.14	9.281
236.50	11.336
236.87	9.904
237.23	8.289
237.60	7.663
237.96	7.752
238.33	7.806
238.69	7.144
239.06	6.250
239.42	6.571
239.79	5.974
240.15	5.290
240.52	3.776
240.88	3.633
241.25	3.548
241.61	3.210
241.98	2.989
242.34	2.302
242.71	2.564
243.07	3.102
243.44	3.213
243.80	3.542
244.17	3.631
244.53	4.185
244.90	4.142
245.26	3.998
245.63	4.044
245.99	3.751
246.36	3.870
246.72	3.635
247.09	3.908
247.45	3.597
247.81	3.723
248.18	4.033
248.54	3.923
248.91	4.030
249.27	4.268
249.64	4.659
250.00	5.457
250.36	5.936
250.73	5.940
251.09	5.788
251.46	6.070
251.82	6.535
252.19	6.304
252.55	5.624
252.91	5.611
253.28	5.574
253.64	5.236
254.01	5.046
254.37	3.877
254.73	3.814
255.10	3.227
255.46	3.131
255.83	2.528
256.19	2.336
256.55	3.011
256.92	3.281
257.28	3.370
257.65	3.396
258.01	3.297
258.37	3.583
258.74	3.689
259.10	4.087
259.46	4.053
259.83	3.979
260.19	4.094
260.55	3.758
260.92	3.189
261.28	3.132
261.64	2.941
262.01	2.694
262.37	2.531
262.73	2.284
263.10	1.789
263.46	1.783
263.82	2.072
264.19	2.041
264.55	2.211
264.91	2.460
265.28	2.013
265.64	1.960
266.00	2.201
266.37	2.414
266.73	3.405
267.09	3.711
267.46	3.873
267.82	3.917
268.18	4.084
268.54	4.161
268.91	4.153
269.27	4.583
269.63	4.709
270.00	4.483
270.36	4.078
270.72	3.301
271.08	3.065
271.45	2.930
271.81	2.913
272.17	3.010
272.53	3.354
272.90	3.466
273.26	3.309
273.62	3.368
273.98	3.525
274.35	3.666
274.71	3.670
275.07	3.244
275.43	3.280
275.80	3.470
276.16	3.005
276.52	2.665
276.88	2.688
277.25	2.727
277.61	2.741
277.97	2.978
278.33	3.250
278.69	3.522
279.06	3.696
279.42	3.513
279.78	3.137
280.14	3.551
280.50	3.708
280.87	3.768
281.23	3.933
281.59	3.785
281.95	3.668
282.31	3.505
282.68	3.600
283.04	3.825
283.40	3.898
283.76	3.941
284.12	3.900
284.48	3.695
284.85	3.407
285.21	3.366
285.57	3.412
285.93	3.344
286.29	3.318
286.65	3.048
287.02	2.913
287.38	2.856
287.74	2.785
288.10	2.636
288.46	2.851
288.82	3.024
289.18	2.871
289.54	2.723
289.91	2.699
290.27	2.987
290.63	2.896
290.99	2.837
291.35	2.930
291.71	3.259
292.07	3.513
292.43	3.544
292.79	3.431
293.16	3.364
293.52	3.753
293.88	3.948
294.24	3.771
294.60	3.941
294.96	3.998
295.32	3.935
295.68	3.596
296.04	3.529
296.40	3.384
296.76	3.519
297.12	3.473
297.49	3.249
297.85	3.169
298.21	3.210
298.57	3.201
298.93	3.216
299.29	3.231
299.65	3.349
300.01	3.314
300.37	3.494
300.73	3.511
301.09	3.558
301.45	3.627
301.81	3.416
302.17	3.525
302.53	3.509
302.89	3.506
303.25	3.700
303.61	3.947
303.97	4.183
304.33	4.188
304.69	4.306
305.05	4.290
305.41	4.435
305.77	4.513
306.13	4.490
306.49	4.365
306.85	4.273
307.21	4.146
307.57	4.068
307.93	3.885
308.29	3.828
308.65	3.781
309.01	3.925
309.37	3.801
309.73	3.961
310.09	4.057
310.45	4.166
310.81	4.333
311.17	4.373
311.53	4.248
311.89	4.226
312.25	4.214
312.61	4.344
312.96	4.408
313.32	4.301
313.68	4.023
314.04	3.827
314.40	3.659
314.76	3.493
315.12	3.363
315.48	3.463
315.84	3.363
316.20	3.336
316.56	3.367
316.92	3.284
317.27	3.287
317.63	3.321
317.99	3.167
318.35	3.201
318.71	3.139
319.07	3.147
319.43	2.928
319.79	2.961
320.15	2.946
320.50	2.783
320.86	2.771
321.22	3.049
321.58	3.114
321.94	3.289
322.30	3.351
322.66	3.526
323.01	3.668
323.37	3.751
323.73	3.792
324.09	3.738
324.45	3.819
324.81	3.815
325.17	3.724
325.52	3.574
325.88	3.417
326.24	3.426
326.60	3.365
326.96	3.216
327.31	3.325
327.67	3.191
328.03	3.316
328.39	3.236
328.75	3.209
329.11	3.100
329.46	3.404
329.82	3.496
330.18	3.500
330.54	3.435
330.90	3.560
331.25	3.710
331.61	3.793
331.97	3.711
332.33	3.762
332.68	3.874
333.04	4.015
333.40	4.034
333.76	4.185
334.11	4.191
334.47	4.379
334.83	4.305
335.19	4.143
335.54	4.064
335.90	4.038
336.26	4.129
336.62	3.991
336.97	3.828
337.33	3.720
337.69	3.598
338.05	3.606
338.40	3.415
338.76	3.491
339.12	3.436
339.48	3.476
339.83	3.604
340.19	3.488
340.55	3.629
340.90	3.725
341.26	3.638
341.62	3.732
341.97	3.820
342.33	4.006
342.69	4.045
343.04	4.181
343.40	4.259
343.76	4.185
344.12	4.142
344.47	3.983
344.83	3.954
345.19	4.079
345.54	4.049
345.90	4.018
346.26	3.790
346.61	3.743
346.97	3.771
347.32	3.787
347.68	3.654
348.04	3.715
348.39	3.859
348.75	3.813
349.11	3.749
349.46	3.749
349.82	3.607
350.18	3.720
350.53	3.690
350.89	3.598
351.24	3.587
351.60	3.742
351.96	3.710
352.31	3.546
352.67	3.578
353.02	3.599
353.38	3.608
353.74	3.759
354.09	3.798
354.45	3.807
354.80	3.839
355.16	3.813
355.52	3.811
355.87	3.903
356.23	4.085
356.58	4.131
356.94	4.221
357.29	4.179
357.65	4.180
358.00	4.085
358.36	4.159
358.72	4.165
359.07	4.146
359.43	4.106
359.78	4.121
360.14	4.072
360.49	4.026
360.85	3.906
361.20	3.887
361.56	3.842
361.91	3.920
362.27	3.833
362.62	3.797
362.98	3.807
363.33	3.754
363.69	3.714
364.04	3.687
364.40	3.700
364.75	3.711
365.11	3.694
365.46	3.682
365.82	3.567
366.17	3.562
366.53	3.657
366.88	3.654
367.24	3.712
367.59	3.700
367.95	3.703
368.30	3.735
368.66	3.828
369.01	3.860
369.37	3.880
369.72	4.012
370.08	4.075
370.43	4.081
370.78	4.125
371.14	4.139
371.49	4.178
371.85	4.222
372.20	4.218
372.56	4.205
372.91	4.309
373.26	4.352
373.62	4.337
373.97	4.334
374.33	4.312
374.68	4.301
375.03	4.323
375.39	4.332
375.74	4.372
376.10	4.339
376.45	4.314
376.80	4.332
377.16	4.320
377.51	4.373
377.87	4.441
378.22	4.487
378.57	4.534
378.93	4.650
379.28	4.715
379.63	4.768
379.99	4.904
380.34	5.028
380.70	5.065
381.05	5.200
381.40	5.256
381.76	5.305
382.11	5.333
382.46	5.448
382.82	5.452
383.17	5.494
383.52	5.542
383.88	5.567
384.23	5.517
384.58	5.510
384.94	5.529
385.29	5.582
385.64	5.557
385.99	5.578
386.35	5.594
386.70	5.624
387.05	5.652
387.41	5.662
387.76	5.683
388.11	5.781
388.47	5.878
388.82	5.892
389.17	5.956
389.52	6.131
389.88	6.229
390.23	6.271
390.58	6.363
390.93	6.468
391.29	6.571
391.64	6.697
391.99	6.759
392.34	6.772
392.70	6.867
393.05	6.919
393.40	6.814
393.75	6.860
394.11	6.883
394.46	6.915
394.81	6.869
395.16	6.822
395.52	6.736
395.87	6.668
396.22	6.639
396.57	6.524
396.92	6.440
397.28	6.445
397.63	6.439
397.98	6.423
398.33	6.381
398.68	6.427
399.04	6.449
399.39	6.478
399.74	6.534
400.09	6.560
400.44	6.663
400.80	6.737
401.15	6.810
401.50	6.827
401.85	6.891
402.20	6.944
402.55	6.956
402.90	7.005
403.26	7.074
403.61	7.119
403.96	7.173
404.31	7.190
404.66	7.203
405.01	7.208
405.36	7.261
405.72	7.274
406.07	7.276
406.42	7.296
406.77	7.328
407.12	7.350
407.47	7.406
407.82	7.427
408.17	7.459
408.53	7.491
408.88	7.533
409.23	7.462
409.58	7.473
409.93	7.519
410.28	7.506
410.63	7.489
410.98	7.492
411.33	7.462
411.68	7.510
412.03	7.525
412.38	7.562
412.73	7.652
413.09	7.752
413.44	7.828
413.79	7.889
414.14	8.003
414.49	8.113
414.84	8.179
415.19	8.307
415.54	8.363
415.89	8.427
416.24	8.488
416.59	8.533
416.94	8.587
417.29	8.613
417.64	8.630
417.99	8.634
418.34	8.645
418.69	8.686
419.04	8.686
419.39	8.702
419.74	8.739
420.09	8.748
420.44	8.752
420.79	8.750
421.14	8.741
421.49	8.759
421.84	8.755
422.19	8.744
422.54	8.719
422.89	8.695
423.24	8.658
423.59	8.623
423.94	8.577
424.29	8.514
424.64	8.469
424.99	8.443
425.34	8.401
425.68	8.385
426.03	8.336
426.38	8.302
426.73	8.284
427.08	8.270
427.43	8.238
427.78	8.257
428.13	8.281
428.48	8.301
428.83	8.347
429.18	8.370
429.53	8.407
429.87	8.422
430.22	8.434
430.57	8.446
430.92	8.474
431.27	8.469
431.62	8.468
431.97	8.455
432.32	8.455
432.67	8.428
433.01	8.412
433.36	8.369
433.71	8.360
434.06	8.352
434.41	8.362
434.76	8.358
435.11	8.375
435.45	8.395
435.80	8.421
436.15	8.439
436.50	8.479
436.85	8.530
437.20	8.576
437.54	8.619
437.89	8.621
438.24	8.622
438.59	8.627
438.94	8.613
439.29	8.608
439.63	8.597
439.98	8.583
440.33	8.552
440.68	8.471
441.03	8.404
441.37	8.338
441.72	8.337
442.07	8.307
442.42	8.295
442.76	8.298
443.11	8.276
443.46	8.269
443.81	8.264
444.16	8.249
444.50	8.262
444.85	8.240
445.20	8.226
445.55	8.155
445.89	8.094
446.24	7.998
446.59	7.903
446.94	7.799
447.28	7.685
447.63	7.580
447.98	7.462
448.32	7.345
448.67	7.265
449.02	7.193
449.37	7.177
449.71	7.143
450.06	7.149
450.41	7.182
450.75	7.212
451.10	7.210
451.45	7.186
451.79	7.177
452.14	7.171
452.49	7.169
452.84	7.149
453.18	7.112
453.53	7.138
453.88	7.143
454.22	7.143
454.57	7.167
454.92	7.228
455.26	7.318
455.61	7.415
455.95	7.510
456.30	7.608
456.65	7.679
456.99	7.766
457.34	7.811
457.69	7.882
458.03	7.938
458.38	7.979
458.73	8.009
459.07	8.016
459.42	7.999
459.76	7.967
460.11	7.923
460.46	7.906
460.80	7.870
461.15	7.871
461.49	7.843
461.84	7.837
462.19	7.850
462.53	7.880
462.88	7.917
463.22	7.969
463.57	8.043
463.91	8.110
464.26	8.160
464.61	8.246
464.95	8.302
465.30	8.383
465.64	8.407
465.99	8.434
466.33	8.443
466.68	8.460
467.02	8.460
467.37	8.470
467.71	8.470
468.06	8.511
468.41	8.493
468.75	8.486
469.10	8.437
469.44	8.433
469.79	8.419
470.13	8.440
470.48	8.419
470.82	8.407
471.17	8.388
471.51	8.394
471.86	8.388
472.20	8.372
472.55	8.331
472.89	8.335
473.23	8.292
473.58	8.276
473.92	8.257
474.27	8.230
474.61	8.229
474.96	8.223
475.30	8.209
475.65	8.149
475.99	8.134
476.34	8.146
476.68	8.114
477.02	8.128
477.37	8.121
477.71	8.147
478.06	8.236
478.40	8.347
478.75	8.503
479.09	8.688
479.43	8.916
479.78	9.140
480.12	9.323
480.47	9.507
480.81	9.667
481.15	9.830
481.50	9.941
481.84	10.064
482.19	10.177
482.53	10.273
482.87	10.337
483.22	10.369
483.56	10.363
483.90	10.349
484.25	10.337
484.59	10.318
484.94	10.277
485.28	10.249
485.62	10.189
485.97	10.126
486.31	10.071
486.65	10.031
487.00	10.005
487.34	10.014
487.68	10.027
488.03	10.041
488.37	10.058
488.71	10.089
489.06	10.110
489.40	10.129
489.74	10.171
490.09	10.180
490.43	10.190
490.77	10.200
491.11	10.190
491.46	10.200
491.80	10.194
492.14	10.207
492.49	10.216
492.83	10.244
493.17	10.293
493.51	10.333
493.86	10.423
494.20	10.544
494.54	10.676
494.88	10.851
495.23	11.018
495.57	11.194
495.91	11.373
496.25	11.555
496.60	11.737
496.94	11.947
497.28	12.135
497.62	12.333
497.97	12.510
498.31	12.737
498.65	12.946
498.99	13.202
499.33	13.464
499.68	13.734
500.02	14.032
500.36	14.363
500.70	14.640
501.04	14.949
501.39	15.279
501.73	15.631
502.07	15.967
502.41	16.328
502.75	16.691
503.09	17.071
503.44	17.444
503.78	17.815
504.12	18.183
504.46	18.601
504.80	19.057
505.14	19.473
505.49	19.886
505.83	20.317
506.17	20.759
506.51	21.161
506.85	21.560
507.19	21.977
507.53	22.407
507.87	22.858
508.22	23.290
508.56	23.697
508.90	24.116
509.24	24.561
509.58	24.988
509.92	25.398
510.26	25.813
510.60	26.252
510.94	26.696
511.28	27.128
511.63	27.526
511.97	27.924
512.31	28.333
512.65	28.765
512.99	29.244
513.33	29.698
513.67	30.225
514.01	30.776
514.35	31.278
514.69	31.789
515.03	32.290
515.37	32.774
515.71	33.245
516.05	33.660
516.39	34.071
516.73	34.409
517.07	34.782
517.41	35.054
517.75	35.351
518.09	35.649
518.43	35.905
518.77	36.145
519.11	36.391
519.45	36.646
519.79	36.915
520.13	37.205
520.47	37.540
520.81	37.872
521.15	38.244
521.49	38.580
521.83	38.922
522.17	39.279
522.51	39.688
522.85	40.095
523.19	40.568
523.53	41.178
523.87	41.788
524.21	42.387
524.55	42.949
524.89	43.476
525.23	43.949
525.57	44.389
525.91	44.773
526.25	45.123
526.58	45.479
526.92	45.781
527.26	45.971
527.60	46.120
527.94	46.210
528.28	46.299
528.62	46.355
528.96	46.408
529.30	46.472
529.64	46.518
529.97	46.558
530.31	46.599
530.65	46.629
530.99	46.718
531.33	46.806
531.67	46.922
532.01	47.046
532.35	47.186
532.68	47.290
533.02	47.340
533.36	47.427
533.70	47.447
534.04	47.451
534.38	47.507
534.71	47.552
535.05	47.604
535.39	47.684
535.73	47.730
536.07	47.786
536.41	47.948
536.74	48.176
537.08	48.405
537.42	48.701
537.76	48.999
538.10	49.262
538.43	49.535
538.77	49.754
539.11	49.980
539.45	50.175
539.79	50.368
540.12	50.533
540.46	50.631
540.80	50.694
541.14	50.731
541.47	50.732
541.81	50.718
542.15	50.685
542.49	50.697
542.82	50.634
543.16	50.593
543.50	50.566
543.84	50.513
544.17	50.459
544.51	50.462
544.85	50.462
545.18	50.463
545.52	50.478
545.86	50.483
546.20	50.456
546.53	50.456
546.87	50.461
547.21	50.424
547.54	50.405
547.88	50.428
548.22	50.454
548.55	50.465
548.89	50.559
549.23	50.551
549.56	50.616
549.90	50.671
550.24	50.768
550.57	50.826
550.91	50.889
551.25	50.950
551.58	51.027
551.92	51.073
552.26	51.135
552.59	51.153
552.93	51.244
553.27	51.249
553.60	51.331
553.94	51.356
554.27	51.432
554.61	51.512
554.95	51.564
555.28	51.640
555.62	51.723
555.95	51.798
556.29	51.830
556.63	51.904
556.96	51.979
557.30	52.018
557.63	52.067
557.97	52.107
558.31	52.124
558.64	52.213
558.98	52.245
559.31	52.244
559.65	52.271
559.98	52.358
560.32	52.385
560.65	52.423
560.99	52.483
561.33	52.579
561.66	52.655
562.00	52.755
562.33	52.804
562.67	52.883
563.00	53.002
563.34	53.114
563.67	53.149
564.01	53.236
564.34	53.279
564.68	53.359
565.01	53.418
565.35	53.489
565.68	53.545
566.02	53.591
566.35	53.612
566.69	53.651
567.02	53.624
567.36	53.693
567.69	53.728
568.03	53.822
568.36	53.866
568.69	53.889
569.03	53.921
569.36	53.952
569.70	54.033
570.03	54.083
570.37	54.163
570.70	54.271
571.04	54.299
571.37	54.366
571.70	54.340
572.04	54.390
572.37	54.403
572.71	54.452
573.04	54.521
573.37	54.474
573.71	54.520
574.04	54.445
574.38	54.415
574.71	54.406
575.04	54.397
575.38	54.454
575.71	54.411
576.05	54.420
576.38	54.399
576.71	54.327
577.05	54.363
577.38	54.320
577.71	54.306
578.05	54.312
578.38	54.300
578.71	54.293
579.05	54.289
579.38	54.279
579.71	54.270
580.05	54.257
580.38	54.290
580.71	54.231
581.05	54.205
581.38	54.244
581.71	54.246
582.05	54.264
582.38	54.265
582.71	54.310
583.04	54.322
583.38	54.356
583.71	54.293
584.04	54.330
584.38	54.395
584.71	54.500
585.04	54.511
585.37	54.524
585.71	54.573
586.04	54.652
586.37	54.660
586.70	54.729
587.04	54.706
587.37	54.816
587.70	54.820
588.03	54.883
588.37	54.857
588.70	54.865
589.03	54.831
589.36	54.817
589.69	54.805
590.03	54.763
590.36	54.703
590.69	54.801
591.02	54.802
591.35	54.866
591.69	54.783
592.02	54.807
592.35	54.842
592.68	54.909
593.01	54.973
593.35	54.955
593.68	55.049
594.01	55.129
594.34	55.135
594.67	55.152
595.00	55.138
595.34	55.207
595.67	55.254
596.00	55.222
596.33	55.240
596.66	55.198
596.99	55.143
597.32	55.106
597.65	55.066
597.99	54.972
598.32	54.924
598.65	54.867
598.98	54.835
599.31	54.771
599.64	54.758
599.97	54.745
600.30	54.755
600.63	54.815
600.96	54.811
601.30	54.783
601.63	54.859
601.96	54.878
602.29	54.867
602.62	54.866
602.95	54.865
603.28	54.929
603.61	54.941
603.94	55.001
604.27	54.953
604.60	54.904
604.93	54.944
605.26	54.869
605.59	54.833
605.92	54.893
606.25	54.869
606.58	54.888
606.91	54.845
607.24	54.803
607.57	54.775
607.90	54.768
608.23	54.757
608.56	54.740
608.89	54.799
609.22	54.763
609.55	54.667
609.88	54.636
610.21	54.525
610.54	54.461
610.87	54.374
611.20	54.220
611.53	54.127
611.86	54.107
612.19	54.022
612.52	53.886
612.85	53.805
613.18	53.747
613.51	53.710
613.84	53.742
614.17	53.730
614.49	53.738
614.82	53.658
615.15	53.694
615.48	53.662
615.81	53.655
616.14	53.672
616.47	53.684
616.80	53.664
617.13	53.621
617.46	53.588
617.78	53.567
618.11	53.530
618.44	53.494
618.77	53.462
619.10	53.418
619.43	53.337
619.76	53.291
620.09	53.252
620.41	53.235
620.74	53.239
621.07	53.222
621.40	53.152
621.73	53.117
622.06	53.141
622.38	53.013
622.71	52.975
623.04	52.991
623.37	53.006
623.70	53.011
624.02	52.925
624.35	52.824
624.68	52.759
625.01	52.779
625.34	52.783
625.66	52.737
625.99	52.789
626.32	52.756
626.65	52.670
626.98	52.527
627.30	52.422
627.63	52.371
627.96	52.373
628.29	52.278
628.61	52.113
628.94	51.931
629.27	51.914
629.60	51.799
629.92	51.669
630.25	51.612
630.58	51.597
630.91	51.604
631.23	51.595
631.56	51.528
631.89	51.504
632.21	51.462
632.54	51.488
632.87	51.378
633.19	51.288
633.52	51.266
633.85	51.191
634.18	51.065
634.50	50.968
634.83	50.868
635.16	50.711
635.48	50.620
635.81	50.519
636.14	50.440
636.46	50.350
636.79	50.321
637.11	50.249
637.44	50.185
637.77	50.163
638.09	50.155
638.42	50.086
638.75	50.016
639.07	49.931
639.40	49.901
639.73	49.723
640.05	49.665
640.38	49.554
640.70	49.496
641.03	49.411
641.36	49.307
641.68	49.249
642.01	49.182
642.33	49.252
642.66	49.203
642.98	49.208
643.31	49.197
643.64	49.176
643.96	49.168
644.29	49.153
644.61	49.139
644.94	49.146
645.26	49.042
645.59	49.056
645.91	48.912
646.24	48.786
646.56	48.672
646.89	48.604
647.22	48.563
647.54	48.563
647.87	48.475
648.19	48.397
