OOIBase32 Version 2.0.0.6 Data File
++++++++++++++++++++++++++++++++++++
Date: 01-22-2012, 21:08:49
User: Valued Ocean Optics Customer
Spectrometer Serial Number: USB2E2917
Spectrometer Channel: Master
Integration Time (msec): 4
Spectra Averaged: 10
Boxcar Smoothing: 5
Correct for Electrical Dark: Enabled
Time Normalized: Disabled
Dual-beam Reference: Disabled
Reference Channel: Master
Temperature: Not acquired
Spectrometer Type: S2000
ADC Type: USB2000
Number of Pixels in File: 2048
Graph Title: 
>>>>>Begin Spectral Data<<<<<
180.30	0.000
180.67	0.000
181.03	-184.563
181.40	54.967
181.77	-358.485
182.14	1.041
182.51	102.719
182.88	-31.038
183.25	58.507
183.62	-225.462
183.99	34.109
184.36	105.169
184.73	-23.249
185.10	2047.105
185.46	-27.757
185.83	6.987
186.20	99.635
186.57	658.216
186.94	160.711
187.31	75.149
187.68	-2864.025
188.05	296.992
188.42	175.813
188.78	244.672
189.15	167.505
189.52	142.063
189.89	102.806
190.26	87.455
190.63	76.606
191.00	94.152
191.37	89.279
191.73	122.220
192.10	100.708
192.47	72.210
192.84	5.391
193.21	-63.277
193.58	-71.972
193.94	-12.732
194.31	42.427
194.68	69.250
195.05	46.164
195.42	36.844
195.79	1.674
196.15	21.363
196.52	33.488
196.89	34.811
197.26	13.531
197.63	-5.772
198.00	4.515
198.36	-62.845
198.73	-270.913
199.10	-139.735
199.47	-67.746
199.84	-27.457
200.20	-62.206
200.57	-48.364
200.94	-18.782
201.31	7.889
201.68	16.854
202.04	6.816
202.41	-2.289
202.78	7.740
203.15	-2.698
203.51	7.434
203.88	-5.478
204.25	-21.594
204.62	-21.838
204.98	-28.142
205.35	-67.854
205.72	-116.208
206.09	-195.305
206.46	-117.429
206.82	-179.165
207.19	-182.284
207.56	-262.156
207.92	-255.344
208.29	-138.682
208.66	-109.103
209.03	-120.540
209.39	-70.587
209.76	-43.379
210.13	-8.891
210.50	-13.422
210.86	-49.034
211.23	-58.537
211.60	-51.836
211.96	-58.809
212.33	-139.773
212.70	5662.018
213.07	435.547
213.43	282.453
213.80	1135.462
214.17	252.810
214.53	1293.023
214.90	-72.436
215.27	-23.241
215.63	-50.073
216.00	-38.025
216.37	-29.889
216.74	-28.019
217.10	-19.544
217.47	-23.869
217.84	-15.688
218.20	-12.844
218.57	-7.197
218.94	-19.579
219.30	-11.211
219.67	11.529
220.04	16.713
220.40	31.603
220.77	39.539
221.13	46.538
221.50	42.797
221.87	37.828
222.23	41.556
222.60	41.530
222.97	33.496
223.33	29.435
223.70	9.120
224.07	5.981
224.43	0.769
224.80	0.172
225.16	-3.586
225.53	-2.952
225.90	-1.005
226.26	-0.666
226.63	-3.048
226.99	-3.057
227.36	-1.180
227.73	2.118
228.09	2.843
228.46	4.104
228.82	2.955
229.19	4.254
229.56	2.121
229.92	1.608
230.29	1.826
230.65	4.713
231.02	5.823
231.38	5.628
231.75	4.832
232.12	4.878
232.48	3.261
232.85	5.843
233.21	5.072
233.58	8.735
233.94	9.887
234.31	9.371
234.68	6.695
235.04	8.368
235.41	8.509
235.77	7.774
236.14	7.316
236.50	9.587
236.87	8.951
237.23	9.087
237.60	6.274
237.96	4.392
238.33	4.441
238.69	5.337
239.06	3.205
239.42	2.726
239.79	3.725
240.15	4.289
240.52	3.580
240.88	3.047
241.25	2.087
241.61	1.947
241.98	2.670
242.34	2.639
242.71	2.347
243.07	3.472
243.44	4.001
243.80	3.911
244.17	3.177
244.53	2.904
244.90	3.339
245.26	3.839
245.63	4.340
245.99	4.350
246.36	4.218
246.72	4.011
247.09	3.625
247.45	3.833
247.81	3.685
248.18	4.257
248.54	4.486
248.91	4.370
249.27	4.009
249.64	4.355
250.00	4.153
250.36	4.597
250.73	4.697
251.09	4.386
251.46	3.899
251.82	4.273
252.19	3.893
252.55	4.160
252.91	4.545
253.28	4.665
253.64	3.713
254.01	3.423
254.37	3.379
254.73	3.763
255.10	3.923
255.46	3.665
255.83	3.437
256.19	3.516
256.55	3.704
256.92	3.598
257.28	3.818
257.65	4.100
258.01	4.228
258.37	4.173
258.74	4.281
259.10	4.564
259.46	4.796
259.83	5.000
260.19	5.153
260.55	4.898
260.92	5.005
261.28	4.800
261.64	4.663
262.01	4.435
262.37	4.200
262.73	4.079
263.10	3.708
263.46	3.685
263.82	3.193
264.19	2.868
264.55	2.936
264.91	2.965
265.28	3.486
265.64	3.540
266.00	4.037
266.37	4.402
266.73	4.393
267.09	4.291
267.46	3.831
267.82	4.018
268.18	4.088
268.54	4.101
268.91	4.450
269.27	4.019
269.63	3.929
270.00	3.887
270.36	3.861
270.72	3.732
271.08	3.920
271.45	4.301
271.81	4.364
272.17	4.684
272.53	4.798
272.90	4.510
273.26	4.498
273.62	4.557
273.98	4.527
274.35	4.390
274.71	4.362
275.07	4.373
275.43	4.374
275.80	4.262
276.16	4.049
276.52	3.882
276.88	3.725
277.25	3.834
277.61	3.807
277.97	3.675
278.33	3.767
278.69	4.045
279.06	4.027
279.42	3.784
279.78	3.753
280.14	3.673
280.50	3.791
280.87	3.810
281.23	4.002
281.59	4.069
281.95	4.100
282.31	3.922
282.68	3.722
283.04	3.562
283.40	3.478
283.76	3.411
284.12	3.394
284.48	3.134
284.85	3.113
285.21	3.085
285.57	3.107
285.93	3.254
286.29	3.260
286.65	3.286
287.02	3.390
287.38	3.488
287.74	3.546
288.10	3.525
288.46	3.683
288.82	3.672
289.18	3.360
289.54	3.387
289.91	3.169
290.27	3.509
290.63	3.787
290.99	3.839
291.35	3.959
291.71	3.961
292.07	3.949
292.43	4.062
292.79	4.157
293.16	4.522
293.52	4.570
293.88	4.663
294.24	4.364
294.60	4.254
294.96	4.159
295.32	4.091
295.68	4.032
296.04	4.128
296.40	4.067
296.76	4.016
297.12	3.902
297.49	3.853
297.85	3.944
298.21	4.072
298.57	4.037
298.93	4.205
299.29	4.304
299.65	4.617
300.01	4.610
300.37	4.815
300.73	4.872
301.09	4.985
301.45	4.968
301.81	4.958
302.17	5.027
302.53	4.906
302.89	4.809
303.25	4.852
303.61	4.652
303.97	4.835
304.33	4.925
304.69	5.193
305.05	5.263
305.41	5.357
305.77	5.319
306.13	5.359
306.49	5.553
306.85	5.546
307.21	5.359
307.57	5.290
307.93	5.172
308.29	5.007
308.65	4.672
309.01	4.632
309.37	4.546
309.73	4.621
310.09	4.598
310.45	4.611
310.81	4.726
311.17	4.760
311.53	4.859
311.89	4.905
312.25	4.958
312.61	5.229
312.96	5.304
313.32	5.440
313.68	5.362
314.04	5.353
314.40	5.268
314.76	5.325
315.12	5.476
315.48	5.607
315.84	5.559
316.20	5.523
316.56	5.537
316.92	5.453
317.27	5.488
317.63	5.577
317.99	5.626
318.35	5.737
318.71	5.788
319.07	5.913
319.43	5.749
319.79	5.725
320.15	5.887
320.50	5.974
320.86	6.112
321.22	6.237
321.58	6.162
321.94	6.183
322.30	6.426
322.66	6.391
323.01	6.348
323.37	6.686
323.73	6.777
324.09	7.015
324.45	7.087
324.81	7.206
325.17	7.288
325.52	7.590
325.88	7.757
326.24	7.571
326.60	7.751
326.96	7.929
327.31	7.769
327.67	8.025
328.03	7.909
328.39	7.929
328.75	8.032
329.11	8.022
329.46	8.030
329.82	7.998
330.18	8.278
330.54	8.259
330.90	8.234
331.25	8.388
331.61	8.442
331.97	8.507
332.33	8.575
332.68	8.604
333.04	8.671
333.40	8.567
333.76	8.633
334.11	8.574
334.47	8.705
334.83	8.788
335.19	8.805
335.54	8.700
335.90	8.752
336.26	8.783
336.62	8.748
336.97	8.713
337.33	8.828
337.69	8.836
338.05	8.954
338.40	8.958
338.76	8.994
339.12	8.981
339.48	9.004
339.83	9.006
340.19	8.902
340.55	8.921
340.90	8.875
341.26	8.842
341.62	8.792
341.97	8.775
342.33	8.700
342.69	8.736
343.04	8.709
343.40	8.801
343.76	8.766
344.12	8.886
344.47	8.871
344.83	8.963
345.19	8.981
345.54	9.112
345.90	9.027
346.26	8.945
346.61	8.809
346.97	8.910
347.32	8.808
347.68	8.783
348.04	8.673
348.39	8.649
348.75	8.591
349.11	8.573
349.46	8.490
349.82	8.499
350.18	8.586
350.53	8.717
350.89	8.627
351.24	8.658
351.60	8.680
351.96	8.756
352.31	8.716
352.67	8.685
353.02	8.713
353.38	8.768
353.74	8.867
354.09	8.825
354.45	8.727
354.80	8.743
355.16	8.780
355.52	8.764
355.87	8.742
356.23	8.807
356.58	8.858
356.94	8.918
357.29	8.836
357.65	8.722
358.00	8.763
358.36	8.818
358.72	8.855
359.07	8.816
359.43	8.846
359.78	8.898
360.14	8.894
360.49	8.922
360.85	8.877
361.20	8.926
361.56	8.943
361.91	8.983
362.27	8.940
362.62	9.003
362.98	9.057
363.33	9.121
363.69	9.208
364.04	9.278
364.40	9.293
364.75	9.317
365.11	9.329
365.46	9.314
365.82	9.280
366.17	9.351
366.53	9.257
366.88	9.311
367.24	9.305
367.59	9.265
367.95	9.272
368.30	9.287
368.66	9.377
369.01	9.473
369.37	9.562
369.72	9.621
370.08	9.645
370.43	9.773
370.78	9.769
371.14	9.772
371.49	9.764
371.85	9.804
372.20	9.878
372.56	9.938
372.91	9.958
373.26	10.102
373.62	10.170
373.97	10.250
374.33	10.354
374.68	10.435
375.03	10.571
375.39	10.666
375.74	10.749
376.10	10.899
376.45	10.975
376.80	11.050
377.16	11.026
377.51	11.098
377.87	11.223
378.22	11.281
378.57	11.402
378.93	11.470
379.28	11.538
379.63	11.639
379.99	11.694
380.34	11.758
380.70	11.886
381.05	12.034
381.40	12.126
381.76	12.193
382.11	12.281
382.46	12.352
382.82	12.459
383.17	12.634
383.52	12.779
383.88	12.879
384.23	13.019
384.58	13.155
384.94	13.297
385.29	13.459
385.64	13.566
385.99	13.740
386.35	13.906
386.70	14.058
387.05	14.153
387.41	14.243
387.76	14.371
388.11	14.449
388.47	14.545
388.82	14.651
389.17	14.748
389.52	14.909
389.88	14.994
390.23	15.064
390.58	15.132
390.93	15.280
391.29	15.410
391.64	15.518
391.99	15.628
392.34	15.758
392.70	15.858
393.05	15.972
393.40	16.062
393.75	16.169
394.11	16.276
394.46	16.349
394.81	16.425
395.16	16.526
395.52	16.618
395.87	16.720
396.22	16.830
396.57	16.887
396.92	16.947
397.28	17.027
397.63	17.101
397.98	17.203
398.33	17.370
398.68	17.457
399.04	17.492
399.39	17.526
399.74	17.604
400.09	17.626
400.44	17.712
400.80	17.815
401.15	17.881
401.50	17.926
401.85	17.960
402.20	17.963
402.55	17.987
402.90	18.085
403.26	18.166
403.61	18.238
403.96	18.279
404.31	18.389
404.66	18.426
405.01	18.438
405.36	18.530
405.72	18.601
406.07	18.696
406.42	18.803
406.77	18.870
407.12	18.944
407.47	18.972
407.82	19.030
408.17	19.015
408.53	19.079
408.88	19.188
409.23	19.193
409.58	19.224
409.93	19.252
410.28	19.264
410.63	19.237
410.98	19.250
411.33	19.314
411.68	19.405
412.03	19.463
412.38	19.470
412.73	19.458
413.09	19.470
413.44	19.481
413.79	19.491
414.14	19.487
414.49	19.466
414.84	19.480
415.19	19.426
415.54	19.386
415.89	19.337
416.24	19.346
416.59	19.322
416.94	19.303
417.29	19.282
417.64	19.291
417.99	19.311
418.34	19.335
418.69	19.306
419.04	19.304
419.39	19.303
419.74	19.318
420.09	19.332
420.44	19.343
420.79	19.360
421.14	19.386
421.49	19.404
421.84	19.407
422.19	19.420
422.54	19.485
422.89	19.550
423.24	19.578
423.59	19.654
423.94	19.701
424.29	19.776
424.64	19.879
424.99	19.984
425.34	20.050
425.68	20.144
426.03	20.259
426.38	20.322
426.73	20.399
427.08	20.496
427.43	20.561
427.78	20.565
428.13	20.608
428.48	20.604
428.83	20.594
429.18	20.616
429.53	20.617
429.87	20.636
430.22	20.613
430.57	20.623
430.92	20.614
431.27	20.595
431.62	20.613
431.97	20.620
432.32	20.644
432.67	20.668
433.01	20.704
433.36	20.736
433.71	20.747
434.06	20.813
434.41	20.821
434.76	20.852
435.11	20.894
435.45	20.918
435.80	20.922
436.15	20.916
436.50	20.915
436.85	20.900
437.20	20.890
437.54	20.885
437.89	20.875
438.24	20.904
438.59	20.924
438.94	20.939
439.29	20.987
439.63	21.005
439.98	21.033
440.33	21.076
440.68	21.126
441.03	21.156
441.37	21.172
441.72	21.181
442.07	21.198
442.42	21.222
442.76	21.226
443.11	21.201
443.46	21.221
443.81	21.233
444.16	21.244
444.50	21.225
444.85	21.255
445.20	21.309
445.55	21.347
445.89	21.357
446.24	21.396
446.59	21.436
446.94	21.502
447.28	21.566
447.63	21.636
447.98	21.697
448.32	21.784
448.67	21.837
449.02	21.865
449.37	21.924
449.71	21.991
450.06	22.012
450.41	22.040
450.75	22.058
451.10	22.051
451.45	22.084
451.79	22.105
452.14	22.135
452.49	22.146
452.84	22.147
453.18	22.177
453.53	22.187
453.88	22.215
454.22	22.247
454.57	22.234
454.92	22.275
455.26	22.267
455.61	22.255
455.95	22.230
456.30	22.230
456.65	22.265
456.99	22.259
457.34	22.260
457.69	22.264
458.03	22.269
458.38	22.336
458.73	22.374
459.07	22.428
459.42	22.516
459.76	22.594
460.11	22.674
460.46	22.734
460.80	22.799
461.15	22.892
461.49	22.982
461.84	23.080
462.19	23.135
462.53	23.187
462.88	23.236
463.22	23.249
463.57	23.316
463.91	23.373
464.26	23.426
464.61	23.476
464.95	23.553
465.30	23.611
465.64	23.650
465.99	23.715
466.33	23.762
466.68	23.777
467.02	23.850
467.37	23.892
467.71	23.922
468.06	23.944
468.41	24.003
468.75	24.012
469.10	24.064
469.44	24.111
469.79	24.113
470.13	24.165
470.48	24.252
470.82	24.274
471.17	24.292
471.51	24.344
471.86	24.394
472.20	24.407
472.55	24.443
472.89	24.428
473.23	24.406
473.58	24.447
473.92	24.452
474.27	24.465
474.61	24.460
474.96	24.451
475.30	24.469
475.65	24.502
475.99	24.515
476.34	24.531
476.68	24.569
477.02	24.622
477.37	24.662
477.71	24.678
478.06	24.691
478.40	24.738
478.75	24.868
479.09	24.989
479.43	25.109
479.78	25.283
480.12	25.480
480.47	25.696
480.81	25.939
481.15	26.176
481.50	26.464
481.84	26.807
482.19	27.154
482.53	27.394
482.87	27.467
483.22	27.344
483.56	27.047
483.90	26.737
484.25	26.512
484.59	26.369
484.94	26.203
485.28	25.972
485.62	25.664
485.97	25.330
486.31	25.077
486.65	24.996
487.00	25.148
487.34	25.504
487.68	25.844
488.03	26.063
488.37	26.109
488.71	26.162
489.06	26.210
489.40	26.263
489.74	26.307
490.09	26.340
490.43	26.372
490.77	26.401
491.11	26.417
491.46	26.452
491.80	26.480
492.14	26.527
492.49	26.550
492.83	26.597
493.17	26.635
493.51	26.677
493.86	26.748
494.20	26.826
494.54	26.873
494.88	26.922
495.23	26.983
495.57	27.036
495.91	27.105
496.25	27.179
496.60	27.230
496.94	27.300
497.28	27.371
497.62	27.425
497.97	27.500
498.31	27.606
498.65	27.686
498.99	27.776
499.33	27.865
499.68	27.933
500.02	28.015
500.36	28.093
500.70	28.143
501.04	28.228
501.39	28.305
501.73	28.354
502.07	28.393
502.41	28.467
502.75	28.498
503.09	28.534
503.44	28.614
503.78	28.648
504.12	28.723
504.46	28.807
504.80	28.862
505.14	28.915
505.49	28.971
505.83	29.035
506.17	29.076
506.51	29.154
506.85	29.219
507.19	29.273
507.53	29.353
507.87	29.430
508.22	29.491
508.56	29.550
508.90	29.629
509.24	29.696
509.58	29.767
509.92	29.847
510.26	29.921
510.60	30.006
510.94	30.071
511.28	30.132
511.63	30.199
511.97	30.263
512.31	30.344
512.65	30.428
512.99	30.484
513.33	30.546
513.67	30.602
514.01	30.659
514.35	30.722
514.69	30.761
515.03	30.836
515.37	30.871
515.71	30.925
516.05	30.973
516.39	31.005
516.73	31.058
517.07	31.122
517.41	31.184
517.75	31.246
518.09	31.300
518.43	31.385
518.77	31.443
519.11	31.498
519.45	31.511
519.79	31.570
520.13	31.616
520.47	31.703
520.81	31.750
521.15	31.805
521.49	31.839
521.83	31.857
522.17	31.923
522.51	31.963
522.85	32.033
523.19	32.172
523.53	32.247
523.87	32.403
524.21	32.545
524.55	32.708
524.89	32.864
525.23	33.033
525.57	33.195
525.91	33.296
526.25	33.426
526.58	33.545
526.92	33.647
527.26	33.758
527.60	33.801
527.94	33.829
528.28	33.845
528.62	33.838
528.96	33.824
529.30	33.787
529.64	33.785
529.97	33.759
530.31	33.724
530.65	33.710
530.99	33.679
531.33	33.680
531.67	33.700
532.01	33.739
532.35	33.782
532.68	33.825
533.02	33.874
533.36	33.892
533.70	33.927
534.04	33.964
534.38	33.980
534.71	34.013
535.05	34.063
535.39	34.095
535.73	34.119
536.07	34.139
536.41	34.172
536.74	34.248
537.08	34.318
537.42	34.404
537.76	34.497
538.10	34.572
538.43	34.666
538.77	34.733
539.11	34.820
539.45	34.894
539.79	34.981
540.12	35.029
540.46	35.053
540.80	35.091
541.14	35.120
541.47	35.154
541.81	35.190
542.15	35.214
542.49	35.249
542.82	35.267
543.16	35.285
543.50	35.336
543.84	35.356
544.17	35.426
544.51	35.495
544.85	35.546
545.18	35.592
545.52	35.649
545.86	35.733
546.20	35.801
546.53	35.898
546.87	35.975
547.21	36.021
547.54	36.146
547.88	36.231
548.22	36.316
548.55	36.361
548.89	36.440
549.23	36.514
549.56	36.542
549.90	36.630
550.24	36.685
550.57	36.735
550.91	36.823
551.25	36.885
551.58	36.917
551.92	36.967
552.26	37.094
552.59	37.184
552.93	37.278
553.27	37.351
553.60	37.422
553.94	37.486
554.27	37.578
554.61	37.651
554.95	37.734
555.28	37.803
555.62	37.864
555.95	37.893
556.29	37.926
556.63	37.999
556.96	38.064
557.30	38.138
557.63	38.190
557.97	38.268
558.31	38.337
558.64	38.380
558.98	38.463
559.31	38.534
559.65	38.597
559.98	38.657
560.32	38.720
560.65	38.792
560.99	38.802
561.33	38.819
561.66	38.835
562.00	38.845
562.33	38.879
562.67	38.908
563.00	38.955
563.34	39.008
563.67	39.025
564.01	39.046
564.34	39.110
564.68	39.187
565.01	39.292
565.35	39.390
565.68	39.447
566.02	39.507
566.35	39.598
566.69	39.675
567.02	39.702
567.36	39.821
567.69	39.858
568.03	39.880
568.36	39.918
568.69	39.992
569.03	40.025
569.36	40.100
569.70	40.199
570.03	40.271
570.37	40.300
570.70	40.391
571.04	40.444
571.37	40.508
571.70	40.601
572.04	40.660
572.37	40.728
572.71	40.828
573.04	40.902
573.37	40.933
573.71	41.012
574.04	41.137
574.38	41.255
574.71	41.398
575.04	41.570
575.38	41.698
575.71	41.866
576.05	41.961
576.38	42.085
576.71	42.213
577.05	42.396
577.38	42.502
577.71	42.608
578.05	42.698
578.38	42.750
578.71	42.805
579.05	42.871
579.38	42.927
579.71	43.009
580.05	43.078
580.38	43.171
580.71	43.236
581.05	43.316
581.38	43.422
581.71	43.504
582.05	43.565
582.38	43.637
582.71	43.727
583.04	43.833
583.38	43.921
583.71	43.961
584.04	44.031
584.38	44.096
584.71	44.168
585.04	44.240
585.37	44.332
585.71	44.414
586.04	44.477
586.37	44.553
586.70	44.585
587.04	44.691
587.37	44.776
587.70	44.824
588.03	44.860
588.37	44.882
588.70	44.969
589.03	45.016
589.36	45.108
589.69	45.218
590.03	45.274
590.36	45.387
590.69	45.410
591.02	45.500
591.35	45.548
591.69	45.637
592.02	45.760
592.35	45.774
592.68	45.830
593.01	45.817
593.35	45.867
593.68	45.910
594.01	45.900
594.34	45.914
594.67	45.945
595.00	45.994
595.34	46.031
595.67	46.105
596.00	46.163
596.33	46.231
596.66	46.407
596.99	46.464
597.32	46.637
597.65	46.779
597.99	46.954
598.32	47.066
598.65	47.190
598.98	47.310
599.31	47.381
599.64	47.474
599.97	47.589
600.30	47.583
600.63	47.645
600.96	47.666
601.30	47.694
601.63	47.676
601.96	47.714
602.29	47.785
602.62	47.883
602.95	47.943
603.28	48.023
603.61	48.056
603.94	48.120
604.27	48.211
604.60	48.261
604.93	48.399
605.26	48.580
605.59	48.716
605.92	48.812
606.25	48.899
606.58	49.018
606.91	49.101
607.24	49.216
607.57	49.338
607.90	49.440
608.23	49.572
608.56	49.590
608.89	49.663
609.22	49.774
609.55	49.896
609.88	49.982
610.21	50.118
610.54	50.286
610.87	50.408
611.20	50.534
611.53	50.638
611.86	50.745
612.19	50.936
612.52	51.023
612.85	51.122
613.18	51.257
613.51	51.362
613.84	51.458
614.17	51.538
614.49	51.618
614.82	51.760
615.15	51.826
615.48	51.879
615.81	51.974
616.14	52.074
616.47	52.138
616.80	52.166
617.13	52.243
617.46	52.267
617.78	52.303
618.11	52.437
618.44	52.489
618.77	52.574
619.10	52.680
619.43	52.738
619.76	52.791
620.09	52.856
620.41	52.956
620.74	53.048
621.07	53.152
621.40	53.263
621.73	53.281
622.06	53.324
622.38	53.404
622.71	53.397
623.04	53.467
623.37	53.495
623.70	53.550
624.02	53.505
624.35	53.542
624.68	53.579
625.01	53.605
625.34	53.633
625.66	53.729
625.99	53.789
626.32	53.917
626.65	53.952
626.98	54.076
627.30	54.173
627.63	54.371
627.96	54.438
628.29	54.542
628.61	54.601
628.94	54.713
629.27	54.781
629.60	54.850
629.92	54.880
630.25	54.982
630.58	54.980
630.91	54.985
631.23	54.999
631.56	55.079
631.89	55.132
632.21	55.214
632.54	55.280
632.87	55.365
633.19	55.403
633.52	55.488
633.85	55.519
634.18	55.607
634.50	55.688
634.83	55.768
635.16	55.879
635.48	55.916
635.81	55.983
636.14	56.056
636.46	56.098
636.79	56.234
637.11	56.312
637.44	56.421
637.77	56.507
638.09	56.636
638.42	56.683
638.75	56.719
639.07	56.871
639.40	56.973
639.73	56.979
640.05	56.974
640.38	56.962
