OOIBase32 Version 2.0.0.6 Data File
++++++++++++++++++++++++++++++++++++
Date: 01-23-2012, 22:10:37
User: Valued Ocean Optics Customer
Spectrometer Serial Number: USB2E2917
Spectrometer Channel: Master
Integration Time (msec): 5
Spectra Averaged: 10
Boxcar Smoothing: 5
Correct for Electrical Dark: Enabled
Time Normalized: Disabled
Dual-beam Reference: Disabled
Reference Channel: Master
Temperature: Not acquired
Spectrometer Type: S2000
ADC Type: USB2000
Number of Pixels in File: 2048
Graph Title: 
>>>>>Begin Spectral Data<<<<<
180.30	0.000
180.67	0.000
181.03	104.885
181.40	-221.607
181.77	3301.267
182.14	58.601
182.51	66.345
182.88	-2360.117
183.25	-304.199
183.62	130.162
183.99	74.727
184.36	-12.365
184.73	105.715
185.10	27.095
185.46	-1.693
185.83	-4.907
186.20	-71.452
186.57	28.007
186.94	70.024
187.31	124.216
187.68	-15.924
188.05	28.731
188.42	33.004
188.78	35.262
189.15	38.069
189.52	40.752
189.89	35.885
190.26	31.617
190.63	41.349
191.00	41.496
191.37	33.780
191.73	27.949
192.10	32.275
192.47	20.046
192.84	14.537
193.21	8.059
193.58	9.767
193.94	10.082
194.31	2.998
194.68	2.673
195.05	-6.078
195.42	-12.326
195.79	-11.449
196.15	-12.406
196.52	-2.637
196.89	-3.465
197.26	2.033
197.63	-5.521
198.00	-6.759
198.36	-2.072
198.73	8.700
199.10	15.240
199.47	18.266
199.84	12.312
200.20	26.685
200.57	7.860
200.94	6.198
201.31	7.380
201.68	26.041
202.04	22.008
202.41	32.739
202.78	10.187
203.15	6.918
203.51	-15.078
203.88	-6.185
204.25	-32.496
204.62	-11.231
204.98	-9.371
205.35	-11.911
205.72	-24.502
206.09	-11.711
206.46	-13.441
206.82	-13.762
207.19	-21.700
207.56	-7.474
207.92	-11.196
208.29	-1.226
208.66	-4.625
209.03	7.642
209.39	-1.656
209.76	4.375
210.13	-0.989
210.50	-10.333
210.86	9.763
211.23	25.507
211.60	30.325
211.96	34.869
212.33	38.659
212.70	40.292
213.07	27.667
213.43	34.902
213.80	28.422
214.17	18.764
214.53	18.663
214.90	16.597
215.27	10.399
215.63	2.157
216.00	-8.293
216.37	-4.854
216.74	-11.946
217.10	-9.642
217.47	-24.319
217.84	-25.169
218.20	-3.724
218.57	-3.466
218.94	-3.705
219.30	-4.593
219.67	-3.388
220.04	-3.502
220.40	-9.125
220.77	-15.419
221.13	-17.256
221.50	-8.653
221.87	-8.732
222.23	-16.231
222.60	-9.853
222.97	-12.823
223.33	-13.026
223.70	-8.158
224.07	-0.802
224.43	1.107
224.80	6.667
225.16	9.222
225.53	9.368
225.90	5.180
226.26	3.009
226.63	1.161
226.99	1.253
227.36	1.981
227.73	0.164
228.09	-3.493
228.46	-3.149
228.82	-2.479
229.19	-3.454
229.56	-6.183
229.92	-2.585
230.29	0.237
230.65	1.844
231.02	3.696
231.38	0.391
231.75	1.324
232.12	4.767
232.48	5.117
232.85	3.760
233.21	5.000
233.58	5.982
233.94	5.913
234.31	2.958
234.68	1.377
235.04	-0.547
235.41	1.605
235.77	2.506
236.14	1.730
236.50	0.144
236.87	0.821
237.23	0.344
237.60	1.107
237.96	1.353
238.33	3.511
238.69	3.876
239.06	3.882
239.42	3.696
239.79	3.502
240.15	3.744
240.52	3.727
240.88	3.860
241.25	3.929
241.61	3.925
241.98	4.308
242.34	3.572
242.71	3.830
243.07	4.428
243.44	4.545
243.80	4.351
244.17	4.447
244.53	4.644
244.90	4.168
245.26	4.074
245.63	3.863
245.99	3.476
246.36	3.633
246.72	3.257
247.09	2.886
247.45	2.574
247.81	2.372
248.18	1.830
248.54	1.823
248.91	1.720
249.27	1.907
249.64	2.009
250.00	2.361
250.36	2.485
250.73	2.617
251.09	2.988
251.46	3.570
251.82	3.729
252.19	4.196
252.55	3.939
252.91	4.174
253.28	3.634
253.64	4.154
254.01	4.336
254.37	3.851
254.73	4.185
255.10	4.202
255.46	3.904
255.83	3.796
256.19	3.242
256.55	3.116
256.92	3.206
257.28	3.334
257.65	3.379
258.01	3.208
258.37	3.215
258.74	3.167
259.10	3.082
259.46	3.245
259.83	3.241
260.19	3.258
260.55	3.219
260.92	2.937
261.28	2.757
261.64	2.463
262.01	2.512
262.37	2.410
262.73	2.258
263.10	2.250
263.46	2.336
263.82	2.458
264.19	2.800
264.55	3.123
264.91	3.490
265.28	3.890
265.64	3.614
266.00	3.351
266.37	3.430
266.73	3.467
267.09	3.441
267.46	3.324
267.82	3.235
268.18	3.317
268.54	3.086
268.91	3.145
269.27	3.047
269.63	3.243
270.00	3.288
270.36	3.310
270.72	3.128
271.08	2.837
271.45	2.770
271.81	2.941
272.17	2.880
272.53	2.735
272.90	2.246
273.26	1.870
273.62	1.685
273.98	1.588
274.35	1.372
274.71	1.845
275.07	2.066
275.43	2.310
275.80	2.307
276.16	2.219
276.52	2.248
276.88	2.465
277.25	2.634
277.61	2.931
277.97	2.889
278.33	2.730
278.69	2.260
279.06	2.417
279.42	2.029
279.78	1.949
280.14	2.166
280.50	2.391
280.87	2.488
281.23	2.743
281.59	2.591
281.95	2.795
282.31	2.938
282.68	3.016
283.04	2.745
283.40	2.841
283.76	2.737
284.12	2.545
284.48	2.574
284.85	2.540
285.21	2.270
285.57	2.336
285.93	2.335
286.29	2.301
286.65	2.302
287.02	2.514
287.38	2.609
287.74	2.792
288.10	2.966
288.46	2.827
288.82	2.760
289.18	2.827
289.54	2.631
289.91	2.628
290.27	2.760
290.63	2.902
290.99	2.781
291.35	2.664
291.71	2.804
292.07	2.719
292.43	2.826
292.79	3.163
293.16	3.350
293.52	3.443
293.88	3.362
294.24	3.397
294.60	3.274
294.96	3.337
295.32	3.515
295.68	3.242
296.04	3.394
296.40	3.304
296.76	3.131
297.12	3.138
297.49	3.233
297.85	3.345
298.21	3.475
298.57	3.599
298.93	3.618
299.29	3.569
299.65	3.707
300.01	3.687
300.37	3.708
300.73	3.907
301.09	3.875
301.45	4.058
301.81	4.061
302.17	3.879
302.53	3.777
302.89	3.705
303.25	3.578
303.61	3.652
303.97	3.619
304.33	3.684
304.69	3.570
305.05	3.512
305.41	3.390
305.77	3.530
306.13	3.601
306.49	3.879
306.85	3.961
307.21	4.054
307.57	4.044
307.93	3.969
308.29	4.095
308.65	4.027
309.01	4.048
309.37	4.088
309.73	3.937
310.09	3.943
310.45	3.756
310.81	3.722
311.17	3.570
311.53	3.610
311.89	3.679
312.25	3.562
312.61	3.657
312.96	3.720
313.32	3.606
313.68	3.517
314.04	3.505
314.40	3.546
314.76	3.529
315.12	3.692
315.48	3.667
315.84	3.637
316.20	3.732
316.56	3.814
316.92	3.748
317.27	3.822
317.63	3.882
317.99	3.898
318.35	3.956
318.71	3.979
319.07	4.024
319.43	4.104
319.79	4.089
320.15	4.026
320.50	3.844
320.86	4.014
321.22	4.118
321.58	4.312
321.94	4.227
322.30	4.169
322.66	4.310
323.01	4.292
323.37	4.193
323.73	4.197
324.09	4.322
324.45	4.504
324.81	4.398
325.17	4.251
325.52	4.191
325.88	4.295
326.24	4.465
326.60	4.598
326.96	4.705
327.31	4.838
327.67	4.797
328.03	4.768
328.39	4.637
328.75	4.771
329.11	4.961
329.46	4.942
329.82	5.066
330.18	5.056
330.54	4.880
330.90	4.872
331.25	4.881
331.61	4.981
331.97	4.895
332.33	5.061
332.68	4.891
333.04	4.883
333.40	5.030
333.76	4.957
334.11	4.799
334.47	4.755
334.83	4.679
335.19	4.668
335.54	4.775
335.90	4.929
336.26	4.917
336.62	5.030
336.97	4.834
337.33	4.671
337.69	4.697
338.05	4.719
338.40	4.770
338.76	4.786
339.12	4.673
339.48	4.643
339.83	4.592
340.19	4.519
340.55	4.482
340.90	4.637
341.26	4.595
341.62	4.612
341.97	4.717
342.33	4.763
342.69	4.761
343.04	4.796
343.40	4.788
343.76	4.808
344.12	4.891
344.47	4.952
344.83	4.839
345.19	4.909
345.54	4.920
345.90	4.913
346.26	4.863
346.61	4.963
346.97	4.913
347.32	4.840
347.68	4.727
348.04	4.679
348.39	4.595
348.75	4.705
349.11	4.657
349.46	4.547
349.82	4.476
350.18	4.486
350.53	4.397
350.89	4.430
351.24	4.429
351.60	4.479
351.96	4.478
352.31	4.524
352.67	4.416
353.02	4.465
353.38	4.495
353.74	4.514
354.09	4.495
354.45	4.543
354.80	4.552
355.16	4.596
355.52	4.601
355.87	4.484
356.23	4.441
356.58	4.498
356.94	4.459
357.29	4.461
357.65	4.482
358.00	4.502
358.36	4.429
358.72	4.443
359.07	4.458
359.43	4.475
359.78	4.557
360.14	4.555
360.49	4.552
360.85	4.546
361.20	4.601
361.56	4.626
361.91	4.587
362.27	4.610
362.62	4.601
362.98	4.543
363.33	4.546
363.69	4.484
364.04	4.475
364.40	4.440
364.75	4.484
365.11	4.486
365.46	4.426
365.82	4.433
366.17	4.411
366.53	4.454
366.88	4.442
367.24	4.480
367.59	4.543
367.95	4.596
368.30	4.658
368.66	4.642
369.01	4.605
369.37	4.619
369.72	4.618
370.08	4.670
370.43	4.700
370.78	4.716
371.14	4.659
371.49	4.696
371.85	4.709
372.20	4.716
372.56	4.787
372.91	4.786
373.26	4.814
373.62	4.843
373.97	4.870
374.33	4.786
374.68	4.810
375.03	4.845
375.39	4.842
375.74	4.828
376.10	4.802
376.45	4.788
376.80	4.816
377.16	4.819
377.51	4.875
377.87	4.867
378.22	4.953
378.57	5.012
378.93	5.019
379.28	5.076
379.63	5.130
379.99	5.188
380.34	5.240
380.70	5.266
381.05	5.327
381.40	5.330
381.76	5.383
382.11	5.411
382.46	5.385
382.82	5.441
383.17	5.456
383.52	5.465
383.88	5.482
384.23	5.497
384.58	5.499
384.94	5.489
385.29	5.511
385.64	5.523
385.99	5.552
386.35	5.633
386.70	5.649
387.05	5.629
387.41	5.639
387.76	5.673
388.11	5.649
388.47	5.699
388.82	5.710
389.17	5.696
389.52	5.725
389.88	5.699
390.23	5.699
390.58	5.704
390.93	5.726
391.29	5.774
391.64	5.776
391.99	5.803
392.34	5.835
392.70	5.870
393.05	5.914
393.40	5.925
393.75	5.953
394.11	5.960
394.46	5.979
394.81	5.988
395.16	5.929
395.52	5.937
395.87	5.932
396.22	5.917
396.57	5.928
396.92	5.922
397.28	5.949
397.63	5.954
397.98	5.983
398.33	6.009
398.68	6.076
399.04	6.098
399.39	6.124
399.74	6.173
400.09	6.200
400.44	6.195
400.80	6.216
401.15	6.220
401.50	6.256
401.85	6.302
402.20	6.358
402.55	6.384
402.90	6.421
403.26	6.443
403.61	6.476
403.96	6.502
404.31	6.552
404.66	6.596
405.01	6.643
405.36	6.681
405.72	6.656
406.07	6.660
406.42	6.679
406.77	6.709
407.12	6.735
407.47	6.743
407.82	6.789
408.17	6.787
408.53	6.821
408.88	6.847
409.23	6.876
409.58	6.904
409.93	6.907
410.28	6.912
410.63	6.956
410.98	6.979
411.33	6.987
411.68	6.999
412.03	7.079
412.38	7.119
412.73	7.115
413.09	7.145
413.44	7.175
413.79	7.216
414.14	7.250
414.49	7.269
414.84	7.292
415.19	7.336
415.54	7.355
415.89	7.348
416.24	7.344
416.59	7.373
416.94	7.374
417.29	7.403
417.64	7.402
417.99	7.411
418.34	7.426
418.69	7.443
419.04	7.451
419.39	7.489
419.74	7.510
420.09	7.533
420.44	7.540
420.79	7.560
421.14	7.565
421.49	7.599
421.84	7.622
422.19	7.646
422.54	7.672
422.89	7.684
423.24	7.675
423.59	7.703
423.94	7.728
424.29	7.750
424.64	7.768
424.99	7.812
425.34	7.821
425.68	7.837
426.03	7.871
426.38	7.890
426.73	7.944
427.08	7.984
427.43	7.984
427.78	8.034
428.13	8.089
428.48	8.128
428.83	8.161
429.18	8.187
429.53	8.213
429.87	8.236
430.22	8.240
430.57	8.270
430.92	8.280
431.27	8.319
431.62	8.292
431.97	8.281
432.32	8.294
432.67	8.306
433.01	8.323
433.36	8.352
433.71	8.368
434.06	8.410
434.41	8.429
434.76	8.476
435.11	8.477
435.45	8.518
435.80	8.557
436.15	8.569
436.50	8.577
436.85	8.582
437.20	8.588
437.54	8.597
437.89	8.593
438.24	8.582
438.59	8.579
438.94	8.606
439.29	8.616
439.63	8.621
439.98	8.649
440.33	8.670
440.68	8.706
441.03	8.728
441.37	8.748
441.72	8.788
442.07	8.810
442.42	8.825
442.76	8.840
443.11	8.863
443.46	8.877
443.81	8.890
444.16	8.896
444.50	8.885
444.85	8.903
445.20	8.919
445.55	8.912
445.89	8.923
446.24	8.924
446.59	8.933
446.94	8.927
447.28	8.939
447.63	8.938
447.98	8.938
448.32	8.981
448.67	8.972
449.02	8.986
449.37	9.008
449.71	9.012
450.06	9.009
450.41	9.036
450.75	9.038
451.10	9.039
451.45	9.062
451.79	9.073
452.14	9.071
452.49	9.087
452.84	9.092
453.18	9.096
453.53	9.130
453.88	9.190
454.22	9.195
454.57	9.242
454.92	9.268
455.26	9.280
455.61	9.308
455.95	9.332
456.30	9.362
456.65	9.361
456.99	9.384
457.34	9.398
457.69	9.422
458.03	9.429
458.38	9.439
458.73	9.460
459.07	9.485
459.42	9.503
459.76	9.517
460.11	9.518
460.46	9.543
460.80	9.570
461.15	9.566
461.49	9.556
461.84	9.587
462.19	9.608
462.53	9.624
462.88	9.641
463.22	9.654
463.57	9.683
463.91	9.722
464.26	9.767
464.61	9.768
464.95	9.808
465.30	9.836
465.64	9.853
465.99	9.870
466.33	9.873
466.68	9.881
467.02	9.904
467.37	9.908
467.71	9.914
468.06	9.932
468.41	9.945
468.75	9.952
469.10	9.941
469.44	9.935
469.79	9.933
470.13	9.967
470.48	9.973
470.82	9.976
471.17	9.998
471.51	10.017
471.86	10.001
472.20	10.014
472.55	10.030
472.89	10.056
473.23	10.088
473.58	10.102
473.92	10.106
474.27	10.136
474.61	10.138
474.96	10.127
475.30	10.114
475.65	10.121
475.99	10.156
476.34	10.171
476.68	10.190
477.02	10.200
477.37	10.214
477.71	10.238
478.06	10.267
478.40	10.352
478.75	10.456
479.09	10.572
479.43	10.686
479.78	10.825
480.12	10.974
480.47	11.139
480.81	11.306
481.15	11.492
481.50	11.679
481.84	11.901
482.19	12.124
482.53	12.315
482.87	12.410
483.22	12.407
483.56	12.292
483.90	12.119
484.25	11.889
484.59	11.683
484.94	11.515
485.28	11.352
485.62	11.135
485.97	10.909
486.31	10.708
486.65	10.592
487.00	10.577
487.34	10.646
487.68	10.760
488.03	10.912
488.37	11.031
488.71	11.081
489.06	11.093
489.40	11.098
489.74	11.091
490.09	11.090
490.43	11.084
490.77	11.079
491.11	11.080
491.46	11.091
491.80	11.099
492.14	11.103
492.49	11.122
492.83	11.128
493.17	11.136
493.51	11.150
493.86	11.161
494.20	11.172
494.54	11.194
494.88	11.214
495.23	11.228
495.57	11.250
495.91	11.278
496.25	11.288
496.60	11.293
496.94	11.329
497.28	11.346
497.62	11.371
497.97	11.418
498.31	11.444
498.65	11.456
498.99	11.494
499.33	11.519
499.68	11.544
500.02	11.540
500.36	11.596
500.70	11.617
501.04	11.652
501.39	11.652
501.73	11.693
502.07	11.718
502.41	11.770
502.75	11.797
503.09	11.834
503.44	11.867
503.78	11.927
504.12	11.940
504.46	11.988
504.80	12.018
505.14	12.055
505.49	12.056
505.83	12.098
506.17	12.120
506.51	12.140
506.85	12.179
507.19	12.213
507.53	12.233
507.87	12.257
508.22	12.275
508.56	12.296
508.90	12.331
509.24	12.371
509.58	12.399
509.92	12.445
510.26	12.469
510.60	12.486
510.94	12.497
511.28	12.525
511.63	12.574
511.97	12.617
512.31	12.660
512.65	12.708
512.99	12.746
513.33	12.781
513.67	12.811
514.01	12.867
514.35	12.917
514.69	12.982
515.03	13.016
515.37	13.058
515.71	13.085
516.05	13.112
516.39	13.149
516.73	13.186
517.07	13.218
517.41	13.245
517.75	13.243
518.09	13.254
518.43	13.238
518.77	13.263
519.11	13.280
519.45	13.297
519.79	13.323
520.13	13.341
520.47	13.346
520.81	13.378
521.15	13.406
521.49	13.461
521.83	13.487
522.17	13.553
522.51	13.605
522.85	13.649
523.19	13.736
523.53	13.843
523.87	13.940
524.21	14.056
524.55	14.149
524.89	14.241
525.23	14.327
525.57	14.416
525.91	14.488
526.25	14.546
526.58	14.600
526.92	14.635
527.26	14.639
527.60	14.638
527.94	14.618
528.28	14.598
528.62	14.566
528.96	14.545
529.30	14.520
529.64	14.489
529.97	14.458
530.31	14.433
530.65	14.401
530.99	14.410
531.33	14.416
531.67	14.441
532.01	14.462
532.35	14.475
532.68	14.468
533.02	14.463
533.36	14.459
533.70	14.462
534.04	14.463
534.38	14.477
534.71	14.465
535.05	14.467
535.39	14.461
535.73	14.467
536.07	14.499
536.41	14.566
536.74	14.608
537.08	14.664
537.42	14.720
537.76	14.772
538.10	14.822
538.43	14.872
538.77	14.914
539.11	14.962
539.45	14.985
539.79	15.017
540.12	15.020
540.46	15.022
540.80	15.016
541.14	15.004
541.47	14.991
541.81	14.969
542.15	14.954
542.49	14.942
542.82	14.914
543.16	14.908
543.50	14.881
543.84	14.884
544.17	14.893
544.51	14.915
544.85	14.934
545.18	14.938
545.52	14.964
545.86	14.974
546.20	14.985
546.53	14.995
546.87	15.011
547.21	15.028
547.54	15.024
547.88	15.054
548.22	15.054
548.55	15.085
548.89	15.141
549.23	15.142
549.56	15.166
549.90	15.210
550.24	15.256
550.57	15.285
550.91	15.300
551.25	15.332
551.58	15.344
551.92	15.373
552.26	15.382
552.59	15.375
552.93	15.426
553.27	15.460
553.60	15.464
553.94	15.497
554.27	15.516
554.61	15.569
554.95	15.589
555.28	15.624
555.62	15.662
555.95	15.702
556.29	15.742
556.63	15.748
556.96	15.778
557.30	15.828
557.63	15.834
557.97	15.852
558.31	15.871
558.64	15.903
558.98	15.930
559.31	15.939
559.65	15.947
559.98	15.954
560.32	15.994
560.65	16.023
560.99	16.015
561.33	16.037
561.66	16.062
562.00	16.094
562.33	16.108
562.67	16.117
563.00	16.151
563.34	16.197
563.67	16.242
564.01	16.258
564.34	16.249
564.68	16.294
565.01	16.303
565.35	16.326
565.68	16.325
566.02	16.364
566.35	16.397
566.69	16.426
567.02	16.436
567.36	16.441
567.69	16.467
568.03	16.526
568.36	16.550
568.69	16.578
569.03	16.610
569.36	16.644
569.70	16.635
570.03	16.655
570.37	16.674
570.70	16.696
571.04	16.735
571.37	16.766
571.70	16.773
572.04	16.783
572.37	16.827
572.71	16.860
573.04	16.905
573.37	16.956
573.71	16.997
574.04	17.039
574.38	17.050
574.71	17.070
575.04	17.080
575.38	17.108
575.71	17.113
576.05	17.153
576.38	17.170
576.71	17.185
577.05	17.197
577.38	17.213
577.71	17.225
578.05	17.269
578.38	17.295
578.71	17.324
579.05	17.364
579.38	17.417
579.71	17.415
580.05	17.419
580.38	17.449
580.71	17.481
581.05	17.505
581.38	17.527
581.71	17.558
582.05	17.596
582.38	17.662
582.71	17.662
583.04	17.692
583.38	17.725
583.71	17.769
584.04	17.793
584.38	17.822
584.71	17.849
585.04	17.882
585.37	17.908
585.71	17.950
586.04	17.940
586.37	17.968
586.70	18.002
587.04	18.034
587.37	18.079
587.70	18.095
588.03	18.149
588.37	18.184
588.70	18.204
589.03	18.205
589.36	18.186
589.69	18.192
590.03	18.218
590.36	18.248
590.69	18.285
591.02	18.296
591.35	18.310
591.69	18.292
592.02	18.306
592.35	18.298
592.68	18.325
593.01	18.368
593.35	18.425
593.68	18.432
594.01	18.418
594.34	18.414
594.67	18.429
595.00	18.470
595.34	18.499
595.67	18.505
596.00	18.563
596.33	18.601
596.66	18.610
596.99	18.592
597.32	18.633
597.65	18.692
597.99	18.709
598.32	18.744
598.65	18.755
598.98	18.783
599.31	18.858
599.64	18.874
599.97	18.903
600.30	18.896
600.63	18.945
600.96	18.971
601.30	18.957
601.63	18.998
601.96	19.022
602.29	19.039
602.62	19.076
602.95	19.076
603.28	19.084
603.61	19.097
603.94	19.147
604.27	19.150
604.60	19.158
604.93	19.199
605.26	19.215
605.59	19.209
605.92	19.243
606.25	19.284
606.58	19.304
606.91	19.334
607.24	19.383
607.57	19.373
607.90	19.408
608.23	19.433
608.56	19.462
608.89	19.465
609.22	19.500
609.55	19.511
609.88	19.494
610.21	19.509
610.54	19.522
610.87	19.503
611.20	19.565
611.53	19.615
611.86	19.664
612.19	19.685
612.52	19.734
612.85	19.787
613.18	19.828
613.51	19.839
613.84	19.864
614.17	19.906
614.49	19.945
614.82	20.005
615.15	20.008
615.48	20.024
615.81	20.040
616.14	20.061
616.47	20.090
616.80	20.130
617.13	20.175
617.46	20.180
617.78	20.234
618.11	20.262
618.44	20.275
618.77	20.290
619.10	20.321
619.43	20.390
619.76	20.396
620.09	20.412
620.41	20.409
620.74	20.464
621.07	20.501
621.40	20.518
621.73	20.559
622.06	20.571
622.38	20.647
622.71	20.652
623.04	20.638
623.37	20.717
623.70	20.742
624.02	20.788
624.35	20.857
624.68	20.898
625.01	20.928
625.34	20.939
625.66	20.943
625.99	20.970
626.32	21.024
626.65	21.075
626.98	21.101
627.30	21.161
627.63	21.201
627.96	21.198
628.29	21.258
628.61	21.277
628.94	21.392
629.27	21.469
629.60	21.516
629.92	21.495
630.25	21.577
630.58	21.564
630.91	21.545
631.23	21.568
631.56	21.593
631.89	21.603
632.21	21.630
632.54	21.558
632.87	21.576
633.19	21.576
633.52	21.638
633.85	21.621
634.18	21.640
634.50	21.727
634.83	21.770
635.16	21.805
635.48	21.858
635.81	21.909
636.14	21.979
636.46	22.020
636.79	22.048
637.11	22.103
637.44	22.114
637.77	22.220
638.09	22.212
638.42	22.197
638.75	22.184
639.07	22.192
639.40	22.198
639.73	22.217
640.05	22.279
640.38	22.317
640.70	22.336
641.03	22.384
641.36	22.368
641.68	22.398
642.01	22.453
642.33	22.551
642.66	22.594
642.98	22.619
643.31	22.645
643.64	22.644
643.96	22.676
644.29	22.745
644.61	22.786
644.94	22.843
645.26	22.855
645.59	22.909
645.91	22.927
646.24	23.014
646.56	23.029
646.89	23.068
647.22	23.162
647.54	23.170
