OOIBase32 Version 2.0.0.6 Data File
++++++++++++++++++++++++++++++++++++
Date: 01-23-2012, 22:05:23
User: Valued Ocean Optics Customer
Spectrometer Serial Number: USB2E2917
Spectrometer Channel: Master
Integration Time (msec): 5
Spectra Averaged: 10
Boxcar Smoothing: 5
Correct for Electrical Dark: Enabled
Time Normalized: Disabled
Dual-beam Reference: Disabled
Reference Channel: Master
Temperature: Not acquired
Spectrometer Type: S2000
ADC Type: USB2000
Number of Pixels in File: 2048
Graph Title: 
>>>>>Begin Spectral Data<<<<<
180.30	0.000
180.67	0.000
181.03	273.863
181.40	-133.221
181.77	6241.400
182.14	51.221
182.51	81.367
182.88	-3369.174
183.25	-212.873
183.62	-35.031
183.99	43.301
184.36	-311.927
184.73	82.529
185.10	20.923
185.46	8.713
185.83	161.430
186.20	72.180
186.57	659.796
186.94	88.428
187.31	109.887
187.68	38.016
188.05	-58.306
188.42	-29.366
188.78	-40.107
189.15	-28.291
189.52	-29.820
189.89	-17.960
190.26	-25.766
190.63	-0.126
191.00	-4.231
191.37	6.117
191.73	8.457
192.10	10.367
192.47	9.572
192.84	22.285
193.21	26.445
193.58	33.138
193.94	30.308
194.31	19.471
194.68	13.738
195.05	16.518
195.42	3.104
195.79	-0.109
196.15	0.652
196.52	-4.012
196.89	-13.561
197.26	-15.564
197.63	-33.702
198.00	-30.735
198.36	-17.941
198.73	-15.463
199.10	-19.363
199.47	-7.549
199.84	-15.275
200.20	-7.171
200.57	-27.552
200.94	-20.320
201.31	-34.268
201.68	-7.866
202.04	-14.957
202.41	-13.881
202.78	-27.701
203.15	-18.942
203.51	-46.865
203.88	-37.824
204.25	-55.846
204.62	-24.836
204.98	-22.148
205.35	-11.545
205.72	-15.064
206.09	-2.921
206.46	-4.559
206.82	-0.131
207.19	-9.431
207.56	-2.022
207.92	-14.514
208.29	-13.721
208.66	-12.324
209.03	-5.530
209.39	-12.683
209.76	-20.297
210.13	-24.361
210.50	-21.980
210.86	-13.488
211.23	-1.867
211.60	-5.583
211.96	7.464
212.33	0.596
212.70	1.370
213.07	-12.827
213.43	-6.569
213.80	-3.171
214.17	-12.654
214.53	-10.206
214.90	-8.943
215.27	-13.249
215.63	-16.692
216.00	-15.677
216.37	5.814
216.74	-2.075
217.10	2.630
217.47	-4.047
217.84	-1.278
218.20	16.816
218.57	21.079
218.94	18.751
219.30	27.322
219.67	25.738
220.04	22.864
220.40	10.592
220.77	18.075
221.13	14.134
221.50	14.084
221.87	6.725
222.23	-2.970
222.60	-6.835
222.97	-10.406
223.33	-17.843
223.70	-11.825
224.07	-8.625
224.43	-3.803
224.80	-4.635
225.16	-3.850
225.53	-2.166
225.90	-4.136
226.26	-5.262
226.63	-7.019
226.99	-6.969
227.36	-6.179
227.73	-6.786
228.09	-9.477
228.46	-10.943
228.82	-9.548
229.19	-9.646
229.56	-10.476
229.92	-9.376
230.29	-6.555
230.65	-4.372
231.02	-2.951
231.38	-5.750
231.75	-6.270
232.12	-4.576
232.48	-3.303
232.85	-3.892
233.21	-1.315
233.58	0.116
233.94	2.621
234.31	-0.194
234.68	-0.950
235.04	-1.936
235.41	0.673
235.77	2.267
236.14	1.331
236.50	-1.024
236.87	-0.732
237.23	-2.127
237.60	-1.574
237.96	-2.304
238.33	-0.176
238.69	0.057
239.06	0.179
239.42	0.005
239.79	-0.288
240.15	-0.334
240.52	0.136
240.88	0.139
241.25	0.568
241.61	0.125
241.98	0.394
242.34	-0.594
242.71	-0.435
243.07	-0.115
243.44	0.173
243.80	0.250
244.17	0.656
244.53	0.892
244.90	0.668
245.26	0.547
245.63	0.496
245.99	0.320
246.36	0.581
246.72	0.194
247.09	-0.117
247.45	-0.541
247.81	-0.975
248.18	-1.704
248.54	-2.016
248.91	-2.116
249.27	-1.775
249.64	-1.674
250.00	-1.487
250.36	-1.561
250.73	-1.309
251.09	-0.817
251.46	-0.628
251.82	-0.157
252.19	0.698
252.55	0.776
252.91	0.840
253.28	-0.484
253.64	-0.402
254.01	-0.661
254.37	-0.482
254.73	0.126
255.10	0.336
255.46	0.497
255.83	0.127
256.19	0.053
256.55	0.089
256.92	0.016
257.28	0.411
257.65	0.521
258.01	0.653
258.37	0.358
258.74	0.184
259.10	0.133
259.46	0.367
259.83	0.761
260.19	0.815
260.55	0.707
260.92	0.788
261.28	0.543
261.64	0.347
262.01	0.115
262.37	-0.020
262.73	-0.564
263.10	-0.673
263.46	-0.748
263.82	-0.984
264.19	-0.945
264.55	-0.919
264.91	-0.821
265.28	-0.438
265.64	-0.555
266.00	-0.675
266.37	-0.422
266.73	0.213
267.09	-0.013
267.46	-0.269
267.82	-0.306
268.18	-0.292
268.54	-0.296
268.91	-0.016
269.27	0.043
269.63	0.291
270.00	0.526
270.36	0.695
270.72	0.423
271.08	0.303
271.45	0.242
271.81	0.540
272.17	0.533
272.53	0.483
272.90	0.105
273.26	0.169
273.62	-0.052
273.98	-0.248
274.35	-0.415
274.71	-0.045
275.07	0.285
275.43	0.638
275.80	0.473
276.16	0.665
276.52	0.540
276.88	0.616
277.25	0.225
277.61	0.341
277.97	0.259
278.33	0.184
278.69	-0.103
279.06	-0.041
279.42	-0.592
279.78	-0.560
280.14	-0.641
280.50	-0.414
280.87	-0.239
281.23	0.053
281.59	0.023
281.95	0.145
282.31	0.307
282.68	0.494
283.04	0.388
283.40	0.661
283.76	0.475
284.12	0.611
284.48	0.645
284.85	0.540
285.21	0.436
285.57	0.577
285.93	0.626
286.29	0.616
286.65	0.614
287.02	0.688
287.38	0.668
287.74	0.822
288.10	0.561
288.46	0.448
288.82	0.436
289.18	0.398
289.54	0.199
289.91	0.308
290.27	0.274
290.63	0.222
290.99	0.145
291.35	0.236
291.71	0.432
292.07	0.556
292.43	0.781
292.79	1.036
293.16	1.211
293.52	1.395
293.88	1.460
294.24	1.735
294.60	1.719
294.96	1.805
295.32	1.923
295.68	1.763
296.04	1.971
296.40	2.054
296.76	2.085
297.12	2.224
297.49	2.333
297.85	2.464
298.21	2.597
298.57	2.766
298.93	3.046
299.29	3.211
299.65	3.335
300.01	3.409
300.37	3.384
300.73	3.713
301.09	3.913
301.45	4.122
301.81	4.123
302.17	4.076
302.53	4.231
302.89	4.199
303.25	4.202
303.61	4.669
303.97	4.855
304.33	5.134
304.69	5.124
305.05	5.146
305.41	5.110
305.77	5.326
306.13	5.502
306.49	5.761
306.85	5.903
307.21	6.013
307.57	6.025
307.93	6.116
308.29	6.263
308.65	6.247
309.01	6.269
309.37	6.407
309.73	6.488
310.09	6.493
310.45	6.423
310.81	6.509
311.17	6.437
311.53	6.443
311.89	6.508
312.25	6.430
312.61	6.555
312.96	6.700
313.32	6.726
313.68	6.593
314.04	6.597
314.40	6.625
314.76	6.622
315.12	6.785
315.48	6.809
315.84	6.684
316.20	6.682
316.56	6.769
316.92	6.784
317.27	6.711
317.63	6.813
317.99	6.803
318.35	6.630
318.71	6.558
319.07	6.578
319.43	6.599
319.79	6.549
320.15	6.448
320.50	6.218
320.86	6.255
321.22	6.272
321.58	6.331
321.94	6.220
322.30	6.415
322.66	6.528
323.01	6.548
323.37	6.392
323.73	6.414
324.09	6.560
324.45	6.592
324.81	6.435
325.17	6.340
325.52	6.240
325.88	6.339
326.24	6.334
326.60	6.314
326.96	6.311
327.31	6.324
327.67	6.258
328.03	6.106
328.39	5.982
328.75	5.961
329.11	6.062
329.46	5.985
329.82	5.869
330.18	5.702
330.54	5.612
330.90	5.494
331.25	5.428
331.61	5.395
331.97	5.424
332.33	5.542
332.68	5.473
333.04	5.433
333.40	5.512
333.76	5.598
334.11	5.495
334.47	5.390
334.83	5.249
335.19	5.318
335.54	5.406
335.90	5.487
336.26	5.450
336.62	5.492
336.97	5.440
337.33	5.291
337.69	5.208
338.05	5.304
338.40	5.318
338.76	5.444
339.12	5.354
339.48	5.378
339.83	5.243
340.19	5.200
340.55	5.089
340.90	5.064
341.26	5.016
341.62	4.981
341.97	5.039
342.33	5.112
342.69	5.073
343.04	5.080
343.40	4.974
343.76	5.026
344.12	5.091
344.47	5.217
344.83	5.156
345.19	5.188
345.54	5.197
345.90	5.142
346.26	5.026
346.61	5.114
346.97	5.036
347.32	5.102
347.68	4.983
348.04	4.903
348.39	4.826
348.75	4.935
349.11	4.917
349.46	4.919
349.82	4.935
350.18	4.963
350.53	4.817
350.89	4.845
351.24	4.787
351.60	4.828
351.96	4.831
352.31	4.866
352.67	4.781
353.02	4.797
353.38	4.773
353.74	4.679
354.09	4.630
354.45	4.680
354.80	4.657
355.16	4.618
355.52	4.572
355.87	4.539
356.23	4.501
356.58	4.532
356.94	4.502
357.29	4.494
357.65	4.499
358.00	4.528
358.36	4.490
358.72	4.480
359.07	4.459
359.43	4.485
359.78	4.479
360.14	4.437
360.49	4.388
360.85	4.381
361.20	4.404
361.56	4.401
361.91	4.341
362.27	4.334
362.62	4.312
362.98	4.282
363.33	4.196
363.69	4.172
364.04	4.179
364.40	4.205
364.75	4.161
365.11	4.123
365.46	4.097
365.82	4.097
366.17	4.055
366.53	4.095
366.88	4.063
367.24	4.155
367.59	4.170
367.95	4.191
368.30	4.132
368.66	4.163
369.01	4.183
369.37	4.206
369.72	4.215
370.08	4.268
370.43	4.181
370.78	4.204
371.14	4.139
371.49	4.109
371.85	4.090
372.20	4.133
372.56	4.152
372.91	4.127
373.26	4.101
373.62	4.066
373.97	4.006
374.33	4.023
374.68	4.010
375.03	4.030
375.39	3.979
375.74	3.908
376.10	3.854
376.45	3.822
376.80	3.816
377.16	3.812
377.51	3.815
377.87	3.762
378.22	3.759
378.57	3.764
378.93	3.752
379.28	3.823
379.63	3.854
379.99	3.883
380.34	3.851
380.70	3.812
381.05	3.799
381.40	3.780
381.76	3.828
382.11	3.847
382.46	3.773
382.82	3.715
383.17	3.688
383.52	3.678
383.88	3.630
384.23	3.638
384.58	3.615
384.94	3.578
385.29	3.568
385.64	3.541
385.99	3.515
386.35	3.584
386.70	3.599
387.05	3.567
387.41	3.564
387.76	3.556
388.11	3.499
388.47	3.501
388.82	3.483
389.17	3.484
389.52	3.478
389.88	3.452
390.23	3.441
390.58	3.441
390.93	3.423
391.29	3.400
391.64	3.410
391.99	3.414
392.34	3.389
392.70	3.418
393.05	3.408
393.40	3.394
393.75	3.397
394.11	3.326
394.46	3.299
394.81	3.240
395.16	3.192
395.52	3.144
395.87	3.105
396.22	3.089
396.57	3.045
396.92	2.980
397.28	2.970
397.63	2.933
397.98	2.966
398.33	2.945
398.68	2.942
399.04	2.922
399.39	2.908
399.74	2.896
400.09	2.885
400.44	2.873
400.80	2.855
401.15	2.833
401.50	2.820
401.85	2.812
402.20	2.795
402.55	2.804
402.90	2.794
403.26	2.805
403.61	2.817
403.96	2.824
404.31	2.819
404.66	2.846
405.01	2.839
405.36	2.843
405.72	2.809
406.07	2.819
406.42	2.798
406.77	2.787
407.12	2.738
407.47	2.740
407.82	2.702
408.17	2.668
408.53	2.642
408.88	2.628
409.23	2.609
409.58	2.576
409.93	2.545
410.28	2.543
410.63	2.545
410.98	2.551
411.33	2.515
411.68	2.514
412.03	2.522
412.38	2.526
412.73	2.502
413.09	2.495
413.44	2.501
413.79	2.514
414.14	2.517
414.49	2.528
414.84	2.530
415.19	2.560
415.54	2.559
415.89	2.558
416.24	2.556
416.59	2.582
416.94	2.590
417.29	2.599
417.64	2.601
417.99	2.610
418.34	2.611
418.69	2.617
419.04	2.615
419.39	2.628
419.74	2.634
420.09	2.648
420.44	2.645
420.79	2.658
421.14	2.656
421.49	2.658
421.84	2.659
422.19	2.662
422.54	2.668
422.89	2.666
423.24	2.653
423.59	2.647
423.94	2.644
424.29	2.644
424.64	2.614
424.99	2.611
425.34	2.606
425.68	2.591
426.03	2.595
426.38	2.583
426.73	2.570
427.08	2.572
427.43	2.569
427.78	2.565
428.13	2.565
428.48	2.588
428.83	2.598
429.18	2.591
429.53	2.599
429.87	2.591
430.22	2.589
430.57	2.593
430.92	2.608
431.27	2.609
431.62	2.589
431.97	2.570
432.32	2.559
432.67	2.554
433.01	2.557
433.36	2.565
433.71	2.556
434.06	2.565
434.41	2.570
434.76	2.575
435.11	2.571
435.45	2.596
435.80	2.597
436.15	2.603
436.50	2.586
436.85	2.586
437.20	2.579
437.54	2.590
437.89	2.575
438.24	2.566
438.59	2.560
438.94	2.573
439.29	2.569
439.63	2.577
439.98	2.568
440.33	2.587
440.68	2.580
441.03	2.575
441.37	2.563
441.72	2.569
442.07	2.586
442.42	2.593
442.76	2.589
443.11	2.603
443.46	2.606
443.81	2.623
444.16	2.622
444.50	2.635
444.85	2.659
445.20	2.672
445.55	2.669
445.89	2.659
446.24	2.646
446.59	2.639
446.94	2.617
447.28	2.615
447.63	2.601
447.98	2.594
448.32	2.582
448.67	2.549
449.02	2.521
449.37	2.539
449.71	2.533
450.06	2.509
450.41	2.505
450.75	2.504
451.10	2.487
451.45	2.497
451.79	2.500
452.14	2.502
452.49	2.492
452.84	2.506
453.18	2.477
453.53	2.490
453.88	2.512
454.22	2.514
454.57	2.518
454.92	2.530
455.26	2.523
455.61	2.524
455.95	2.525
456.30	2.536
456.65	2.535
456.99	2.543
457.34	2.534
457.69	2.547
458.03	2.552
458.38	2.556
458.73	2.550
459.07	2.568
459.42	2.567
459.76	2.553
460.11	2.532
460.46	2.520
460.80	2.524
461.15	2.519
461.49	2.476
461.84	2.470
462.19	2.451
462.53	2.465
462.88	2.414
463.22	2.397
463.57	2.417
463.91	2.454
464.26	2.476
464.61	2.469
464.95	2.476
465.30	2.499
465.64	2.500
465.99	2.503
466.33	2.481
466.68	2.513
467.02	2.522
467.37	2.510
467.71	2.474
468.06	2.451
468.41	2.435
468.75	2.434
469.10	2.410
469.44	2.389
469.79	2.373
470.13	2.382
470.48	2.340
470.82	2.333
471.17	2.323
471.51	2.317
471.86	2.310
472.20	2.315
472.55	2.298
472.89	2.305
473.23	2.298
473.58	2.304
473.92	2.285
474.27	2.287
474.61	2.283
474.96	2.276
475.30	2.252
475.65	2.245
475.99	2.230
476.34	2.234
476.68	2.232
477.02	2.236
477.37	2.232
477.71	2.232
478.06	2.254
478.40	2.283
478.75	2.320
479.09	2.390
479.43	2.453
479.78	2.506
480.12	2.553
480.47	2.612
480.81	2.675
481.15	2.741
481.50	2.803
481.84	2.858
482.19	2.917
482.53	2.976
482.87	3.001
483.22	2.991
483.56	2.969
483.90	2.925
484.25	2.859
484.59	2.798
484.94	2.745
485.28	2.692
485.62	2.640
485.97	2.579
486.31	2.510
486.65	2.464
487.00	2.450
487.34	2.453
487.68	2.466
488.03	2.488
488.37	2.500
488.71	2.501
489.06	2.493
489.40	2.473
489.74	2.446
490.09	2.431
490.43	2.411
490.77	2.390
491.11	2.366
491.46	2.354
491.80	2.336
492.14	2.301
492.49	2.260
492.83	2.233
493.17	2.200
493.51	2.180
493.86	2.165
494.20	2.154
494.54	2.136
494.88	2.116
495.23	2.110
495.57	2.095
495.91	2.099
496.25	2.094
496.60	2.085
496.94	2.090
497.28	2.085
497.62	2.075
497.97	2.070
498.31	2.064
498.65	2.045
498.99	2.025
499.33	2.022
499.68	2.030
500.02	2.027
500.36	2.020
500.70	1.996
501.04	1.993
501.39	1.970
501.73	1.966
502.07	1.963
502.41	1.967
502.75	1.967
503.09	1.967
503.44	1.960
503.78	1.965
504.12	1.973
504.46	1.995
504.80	2.001
505.14	2.008
505.49	2.005
505.83	2.026
506.17	2.030
506.51	2.033
506.85	2.029
507.19	2.033
507.53	2.032
507.87	2.036
508.22	2.032
508.56	2.019
508.90	2.017
509.24	2.015
509.58	1.987
509.92	1.992
510.26	1.973
510.60	1.962
510.94	1.962
511.28	1.962
511.63	1.956
511.97	1.941
512.31	1.938
512.65	1.937
512.99	1.931
513.33	1.932
513.67	1.933
514.01	1.966
514.35	1.991
514.69	2.000
515.03	2.019
515.37	2.025
515.71	2.036
516.05	2.055
516.39	2.058
516.73	2.070
517.07	2.076
517.41	2.084
517.75	2.059
518.09	2.049
518.43	2.020
518.77	1.994
519.11	1.986
519.45	1.979
519.79	1.946
520.13	1.950
520.47	1.925
520.81	1.930
521.15	1.922
521.49	1.930
521.83	1.922
522.17	1.942
522.51	1.969
522.85	1.989
523.19	2.009
523.53	2.055
523.87	2.084
524.21	2.135
524.55	2.167
524.89	2.195
525.23	2.228
525.57	2.267
525.91	2.294
526.25	2.314
526.58	2.335
526.92	2.358
527.26	2.367
527.60	2.370
527.94	2.364
528.28	2.355
528.62	2.340
528.96	2.323
529.30	2.300
529.64	2.280
529.97	2.249
530.31	2.221
530.65	2.191
530.99	2.168
531.33	2.158
531.67	2.144
532.01	2.131
532.35	2.130
532.68	2.118
533.02	2.102
533.36	2.079
533.70	2.065
534.04	2.038
534.38	2.022
534.71	1.997
535.05	1.974
535.39	1.945
535.73	1.934
536.07	1.909
536.41	1.912
536.74	1.928
537.08	1.944
537.42	1.956
537.76	1.975
538.10	1.987
538.43	2.007
538.77	2.016
539.11	2.032
539.45	2.042
539.79	2.065
540.12	2.074
540.46	2.069
540.80	2.062
541.14	2.046
541.47	2.037
541.81	2.023
542.15	2.007
542.49	1.977
542.82	1.961
543.16	1.937
543.50	1.901
543.84	1.875
544.17	1.855
544.51	1.831
544.85	1.839
545.18	1.827
545.52	1.806
545.86	1.786
546.20	1.782
546.53	1.760
546.87	1.734
547.21	1.710
547.54	1.671
547.88	1.653
548.22	1.646
548.55	1.626
548.89	1.622
549.23	1.633
549.56	1.618
549.90	1.625
550.24	1.621
550.57	1.635
550.91	1.645
551.25	1.649
551.58	1.635
551.92	1.623
552.26	1.602
552.59	1.579
552.93	1.557
553.27	1.566
553.60	1.518
553.94	1.506
554.27	1.477
554.61	1.486
554.95	1.489
555.28	1.498
555.62	1.496
555.95	1.506
556.29	1.507
556.63	1.512
556.96	1.514
557.30	1.552
557.63	1.555
557.97	1.568
558.31	1.552
558.64	1.571
558.98	1.566
559.31	1.577
559.65	1.574
559.98	1.577
560.32	1.567
560.65	1.577
560.99	1.572
561.33	1.589
561.66	1.583
562.00	1.594
562.33	1.585
562.67	1.582
563.00	1.605
563.34	1.630
563.67	1.628
564.01	1.644
564.34	1.619
564.68	1.625
565.01	1.620
565.35	1.614
565.68	1.614
566.02	1.621
566.35	1.637
566.69	1.617
567.02	1.603
567.36	1.619
567.69	1.622
568.03	1.645
568.36	1.657
568.69	1.650
569.03	1.657
569.36	1.661
569.70	1.633
570.03	1.634
570.37	1.651
570.70	1.662
571.04	1.653
571.37	1.651
571.70	1.642
572.04	1.632
572.37	1.630
572.71	1.640
573.04	1.627
573.37	1.661
573.71	1.656
574.04	1.641
574.38	1.615
574.71	1.612
575.04	1.603
575.38	1.612
575.71	1.601
576.05	1.606
576.38	1.589
576.71	1.579
577.05	1.541
577.38	1.513
577.71	1.507
578.05	1.511
578.38	1.489
578.71	1.473
579.05	1.451
579.38	1.459
579.71	1.426
580.05	1.404
580.38	1.402
580.71	1.399
581.05	1.401
581.38	1.404
581.71	1.397
582.05	1.403
582.38	1.408
582.71	1.417
583.04	1.380
583.38	1.402
583.71	1.408
584.04	1.415
584.38	1.407
584.71	1.420
585.04	1.425
585.37	1.445
585.71	1.467
586.04	1.488
586.37	1.509
586.70	1.548
587.04	1.556
587.37	1.566
587.70	1.565
588.03	1.613
588.37	1.611
588.70	1.596
589.03	1.590
589.36	1.560
589.69	1.544
590.03	1.493
590.36	1.476
590.69	1.480
591.02	1.469
591.35	1.458
591.69	1.416
592.02	1.434
592.35	1.434
592.68	1.443
593.01	1.462
593.35	1.476
593.68	1.498
594.01	1.484
594.34	1.477
594.67	1.494
595.00	1.505
595.34	1.506
595.67	1.480
596.00	1.467
596.33	1.446
596.66	1.410
596.99	1.367
597.32	1.346
597.65	1.364
597.99	1.343
598.32	1.302
598.65	1.271
598.98	1.250
599.31	1.244
599.64	1.243
599.97	1.254
600.30	1.251
600.63	1.281
600.96	1.303
601.30	1.303
601.63	1.310
601.96	1.345
602.29	1.364
602.62	1.376
602.95	1.373
603.28	1.365
603.61	1.337
603.94	1.356
604.27	1.340
604.60	1.310
604.93	1.283
605.26	1.287
605.59	1.254
605.92	1.237
606.25	1.215
606.58	1.216
606.91	1.214
607.24	1.240
607.57	1.205
607.90	1.191
608.23	1.173
608.56	1.165
608.89	1.123
609.22	1.119
609.55	1.077
609.88	1.041
610.21	0.995
610.54	0.983
610.87	0.922
611.20	0.912
611.53	0.893
611.86	0.888
612.19	0.884
612.52	0.846
612.85	0.808
613.18	0.799
613.51	0.783
613.84	0.781
614.17	0.744
614.49	0.737
614.82	0.738
615.15	0.719
615.48	0.678
615.81	0.650
616.14	0.671
616.47	0.655
616.80	0.656
617.13	0.652
617.46	0.648
617.78	0.633
618.11	0.632
618.44	0.603
618.77	0.591
619.10	0.607
619.43	0.585
619.76	0.553
620.09	0.545
620.41	0.543
620.74	0.561
621.07	0.531
621.40	0.514
621.73	0.531
622.06	0.553
622.38	0.570
622.71	0.543
623.04	0.557
623.37	0.599
623.70	0.611
624.02	0.649
624.35	0.681
624.68	0.713
625.01	0.769
625.34	0.753
625.66	0.782
625.99	0.769
626.32	0.804
626.65	0.805
626.98	0.784
627.30	0.772
627.63	0.736
627.96	0.718
628.29	0.704
628.61	0.661
628.94	0.669
629.27	0.617
629.60	0.636
629.92	0.591
630.25	0.605
630.58	0.582
630.91	0.577
631.23	0.557
631.56	0.529
631.89	0.536
632.21	0.540
632.54	0.495
632.87	0.510
633.19	0.490
633.52	0.493
633.85	0.487
634.18	0.474
634.50	0.455
634.83	0.437
635.16	0.450
635.48	0.422
635.81	0.393
636.14	0.393
636.46	0.349
636.79	0.318
637.11	0.315
637.44	0.310
637.77	0.300
638.09	0.290
638.42	0.262
638.75	0.206
639.07	0.162
639.40	0.153
639.73	0.158
640.05	0.185
640.38	0.157
640.70	0.177
641.03	0.127
641.36	0.137
641.68	0.125
642.01	0.126
642.33	0.136
642.66	0.167
642.98	0.159
643.31	0.145
643.64	0.113
643.96	0.133
644.29	0.093
644.61	0.134
644.94	0.143
645.26	0.176
645.59	0.232
645.91	0.293
646.24	0.303
646.56	0.307
646.89	0.285
647.22	0.306
647.54	0.305
647.87	0.338
648.19	0.301
648.52	0.331
648.84	0.315
649.17	0.293
649.49	0.259
649.82	0.246
650.14	0.271
650.47	0.323
650.79	0.304
651.11	0.297
651.44	0.295
651.76	0.289
652.09	0.258
652.41	0.276
652.74	0.275
653.06	0.260
653.39	0.283
653.71	0.296
654.04	0.301
654.36	0.330
654.68	0.334
655.01	0.315
655.33	0.339
655.66	0.352
655.98	0.365
656.30	0.410
656.63	0.408
656.95	0.435
657.28	0.417
