OOIBase32 Version 2.0.0.6 Data File
++++++++++++++++++++++++++++++++++++
Date: 01-20-2012, 23:33:42
User: Valued Ocean Optics Customer
Spectrometer Serial Number: USB2E2917
Spectrometer Channel: Master
Integration Time (msec): 3
Spectra Averaged: 10
Boxcar Smoothing: 5
Correct for Electrical Dark: Enabled
Time Normalized: Disabled
Dual-beam Reference: Disabled
Reference Channel: Master
Temperature: Not acquired
Spectrometer Type: S2000
ADC Type: USB2000
Number of Pixels in File: 2048
Graph Title: 
>>>>>Begin Spectral Data<<<<<
180.30	0.000
180.67	0.000
181.03	73.151
181.40	55.614
181.77	48.412
182.14	284.250
182.51	-5.900
182.88	26.526
183.25	-178.003
183.62	-143.999
183.99	99.016
184.36	165.780
184.73	89.362
185.10	-124.624
185.46	212.440
185.83	-2.363
186.20	-656.597
186.57	2780.017
186.94	36.023
187.31	-306.422
187.68	111.906
188.05	-13.910
188.42	15.744
188.78	40.410
189.15	16.489
189.52	17.359
189.89	3.074
190.26	5.572
190.63	12.717
191.00	15.833
191.37	34.071
191.73	47.187
192.10	60.845
192.47	64.460
192.84	51.212
193.21	47.617
193.58	46.515
193.94	56.509
194.31	33.079
194.68	29.779
195.05	21.880
195.42	16.054
195.79	14.748
196.15	-2.488
196.52	-8.521
196.89	-24.381
197.26	-7.763
197.63	-12.743
198.00	-13.654
198.36	17.859
198.73	-2.829
199.10	-11.790
199.47	4.916
199.84	41.439
200.20	46.135
200.57	45.086
200.94	50.988
201.31	50.171
201.68	51.939
202.04	35.850
202.41	22.333
202.78	30.713
203.15	34.077
203.51	25.741
203.88	16.906
204.25	10.583
204.62	10.161
204.98	1.928
205.35	-4.522
205.72	-42.101
206.09	-43.931
206.46	-34.485
206.82	-15.077
207.19	-17.311
207.56	-12.427
207.92	-25.742
208.29	-7.854
208.66	-4.601
209.03	-9.328
209.39	-11.982
209.76	2.850
210.13	12.509
210.50	20.069
210.86	18.593
211.23	30.245
211.60	34.316
211.96	49.538
212.33	46.642
212.70	46.863
213.07	49.653
213.43	67.696
213.80	58.134
214.17	71.507
214.53	64.284
214.90	68.975
215.27	54.641
215.63	50.972
216.00	50.529
216.37	29.520
216.74	11.778
217.10	-5.823
217.47	-0.788
217.84	-22.399
218.20	-33.816
218.57	-32.712
218.94	-40.798
219.30	-41.789
219.67	-24.915
220.04	-1.144
220.40	22.954
220.77	34.286
221.13	37.598
221.50	26.792
221.87	39.284
222.23	43.817
222.60	34.499
222.97	28.769
223.33	35.956
223.70	34.495
224.07	30.612
224.43	24.822
224.80	21.094
225.16	19.368
225.53	22.909
225.90	17.139
226.26	16.897
226.63	17.356
226.99	19.396
227.36	16.145
227.73	14.229
228.09	10.768
228.46	10.896
228.82	9.039
229.19	7.575
229.56	4.080
229.92	5.720
230.29	6.557
230.65	7.928
231.02	6.878
231.38	4.579
231.75	4.527
232.12	3.932
232.48	5.468
232.85	7.504
233.21	11.231
233.58	11.972
233.94	11.895
234.31	11.448
234.68	10.208
235.04	7.782
235.41	8.091
235.77	12.026
236.14	14.234
236.50	13.808
236.87	12.417
237.23	9.277
237.60	7.933
237.96	6.078
238.33	5.921
238.69	5.381
239.06	6.916
239.42	6.186
239.79	4.794
240.15	4.811
240.52	4.293
240.88	4.514
241.25	4.391
241.61	5.563
241.98	5.907
242.34	5.312
242.71	5.094
243.07	4.407
243.44	5.101
243.80	4.957
244.17	4.616
244.53	4.449
244.90	4.294
245.26	4.493
245.63	3.854
245.99	3.890
246.36	4.291
246.72	4.421
247.09	4.492
247.45	4.010
247.81	4.129
248.18	4.174
248.54	4.186
248.91	4.290
249.27	4.558
249.64	4.688
250.00	4.317
250.36	3.665
250.73	3.486
251.09	3.492
251.46	3.318
251.82	2.679
252.19	2.937
252.55	3.607
252.91	3.753
253.28	3.678
253.64	3.785
254.01	4.873
254.37	5.847
254.73	5.269
255.10	4.414
255.46	4.471
255.83	4.373
256.19	4.009
256.55	3.688
256.92	3.280
257.28	3.447
257.65	3.395
258.01	3.106
258.37	2.558
258.74	2.891
259.10	3.359
259.46	3.691
259.83	3.610
260.19	3.648
260.55	3.417
260.92	3.488
261.28	3.424
261.64	3.493
262.01	3.489
262.37	4.056
262.73	3.846
263.10	3.646
263.46	3.025
263.82	3.279
264.19	2.943
264.55	2.933
264.91	3.080
265.28	2.678
265.64	2.712
266.00	2.435
266.37	2.289
266.73	2.617
267.09	2.391
267.46	2.545
267.82	3.049
268.18	2.990
268.54	2.897
268.91	2.769
269.27	2.805
269.63	2.912
270.00	3.080
270.36	3.042
270.72	2.865
271.08	2.969
271.45	3.000
271.81	2.991
272.17	3.454
272.53	4.069
272.90	4.406
273.26	4.620
273.62	4.421
273.98	4.755
274.35	4.817
274.71	5.108
275.07	5.080
275.43	5.276
275.80	4.959
276.16	4.508
276.52	4.351
276.88	4.048
277.25	4.067
277.61	4.079
277.97	3.881
278.33	3.736
278.69	3.573
279.06	3.753
279.42	3.603
279.78	3.584
280.14	3.877
280.50	3.554
280.87	3.503
281.23	3.445
281.59	3.725
281.95	3.577
282.31	3.656
282.68	3.743
283.04	3.524
283.40	3.411
283.76	3.250
284.12	3.328
284.48	3.461
284.85	3.406
285.21	3.440
285.57	3.289
285.93	3.168
286.29	3.108
286.65	2.796
287.02	2.908
287.38	3.163
287.74	3.429
288.10	3.235
288.46	3.037
288.82	3.392
289.18	3.354
289.54	3.417
289.91	3.586
290.27	3.719
290.63	4.029
290.99	4.205
291.35	4.272
291.71	4.338
292.07	4.588
292.43	4.593
292.79	4.467
293.16	4.678
293.52	4.668
293.88	4.680
294.24	4.818
294.60	5.093
294.96	5.031
295.32	5.066
295.68	5.096
296.04	5.027
296.40	5.241
296.76	5.378
297.12	5.454
297.49	5.606
297.85	5.878
298.21	6.075
298.57	6.005
298.93	6.094
299.29	6.218
299.65	6.444
300.01	6.744
300.37	6.900
300.73	7.006
301.09	6.743
301.45	6.933
301.81	7.227
302.17	7.008
302.53	7.020
302.89	7.138
303.25	7.127
303.61	7.151
303.97	7.072
304.33	7.364
304.69	7.648
305.05	8.178
305.41	8.134
305.77	8.133
306.13	8.399
306.49	8.557
306.85	8.553
307.21	8.453
307.57	8.274
307.93	8.288
308.29	8.060
308.65	7.848
309.01	7.646
309.37	7.749
309.73	7.737
310.09	7.680
310.45	7.838
310.81	8.105
311.17	8.277
311.53	8.498
311.89	8.623
312.25	8.675
312.61	8.642
312.96	8.770
313.32	8.570
313.68	8.411
314.04	8.551
314.40	8.297
314.76	8.046
315.12	7.863
315.48	7.695
315.84	7.681
316.20	7.787
316.56	7.860
316.92	7.721
317.27	7.988
317.63	8.066
317.99	8.019
318.35	8.255
318.71	8.356
319.07	8.466
319.43	8.614
319.79	8.439
320.15	8.184
320.50	8.233
320.86	8.168
321.22	7.926
321.58	7.962
321.94	7.905
322.30	7.712
322.66	7.482
323.01	7.472
323.37	7.362
323.73	7.332
324.09	7.505
324.45	7.380
324.81	7.413
325.17	7.536
325.52	7.530
325.88	7.505
326.24	7.392
326.60	7.563
326.96	7.574
327.31	7.562
327.67	7.739
328.03	7.591
328.39	7.633
328.75	7.712
329.11	7.704
329.46	7.667
329.82	7.660
330.18	7.703
330.54	7.625
330.90	7.569
331.25	7.649
331.61	7.508
331.97	7.579
332.33	7.586
332.68	7.531
333.04	7.499
333.40	7.516
333.76	7.495
334.11	7.438
334.47	7.401
334.83	7.497
335.19	7.415
335.54	7.524
335.90	7.472
336.26	7.434
336.62	7.357
336.97	7.369
337.33	7.262
337.69	7.169
338.05	7.266
338.40	7.206
338.76	7.136
339.12	6.992
339.48	6.974
339.83	7.086
340.19	7.123
340.55	7.064
340.90	6.989
341.26	6.992
341.62	7.067
341.97	6.888
342.33	6.962
342.69	6.861
343.04	7.002
343.40	6.943
343.76	6.833
344.12	6.800
344.47	6.812
344.83	6.724
345.19	6.701
345.54	6.651
345.90	6.735
346.26	6.678
346.61	6.672
346.97	6.588
347.32	6.471
347.68	6.360
348.04	6.362
348.39	6.447
348.75	6.534
349.11	6.523
349.46	6.468
349.82	6.438
350.18	6.411
350.53	6.412
350.89	6.377
351.24	6.398
351.60	6.431
351.96	6.438
352.31	6.447
352.67	6.413
353.02	6.484
353.38	6.469
353.74	6.438
354.09	6.418
354.45	6.397
354.80	6.435
355.16	6.449
355.52	6.422
355.87	6.301
356.23	6.262
356.58	6.172
356.94	6.141
357.29	6.125
357.65	6.123
358.00	6.194
358.36	6.162
358.72	6.142
359.07	6.107
359.43	6.170
359.78	6.230
360.14	6.267
360.49	6.269
360.85	6.232
361.20	6.239
361.56	6.250
361.91	6.139
362.27	6.146
362.62	6.088
362.98	6.126
363.33	6.075
363.69	5.983
364.04	5.909
364.40	5.955
364.75	5.892
365.11	5.872
365.46	5.854
365.82	5.866
366.17	5.858
366.53	5.825
366.88	5.817
367.24	5.796
367.59	5.813
367.95	5.757
368.30	5.773
368.66	5.791
369.01	5.704
369.37	5.674
369.72	5.652
370.08	5.605
370.43	5.642
370.78	5.575
371.14	5.524
371.49	5.482
371.85	5.503
372.20	5.399
372.56	5.347
372.91	5.429
373.26	5.441
373.62	5.466
373.97	5.499
374.33	5.463
374.68	5.487
375.03	5.505
375.39	5.541
375.74	5.491
376.10	5.515
376.45	5.513
376.80	5.455
377.16	5.433
377.51	5.441
377.87	5.437
378.22	5.449
378.57	5.411
378.93	5.396
379.28	5.382
379.63	5.368
379.99	5.334
380.34	5.356
380.70	5.334
381.05	5.287
381.40	5.231
381.76	5.126
382.11	5.060
382.46	5.080
382.82	5.096
383.17	5.089
383.52	5.103
383.88	5.123
384.23	5.121
384.58	5.172
384.94	5.173
385.29	5.160
385.64	5.210
385.99	5.221
386.35	5.113
386.70	5.073
387.05	5.041
387.41	4.999
387.76	4.946
388.11	4.912
388.47	4.892
388.82	4.933
389.17	4.898
389.52	4.871
389.88	4.895
390.23	4.941
390.58	4.908
390.93	4.877
391.29	4.868
391.64	4.851
391.99	4.849
392.34	4.788
392.70	4.756
393.05	4.763
393.40	4.776
393.75	4.738
394.11	4.731
394.46	4.731
394.81	4.737
395.16	4.754
395.52	4.771
395.87	4.750
396.22	4.765
396.57	4.687
396.92	4.740
397.28	4.727
397.63	4.709
397.98	4.697
398.33	4.716
398.68	4.705
399.04	4.657
399.39	4.635
399.74	4.626
400.09	4.599
400.44	4.609
400.80	4.539
401.15	4.518
401.50	4.512
401.85	4.486
402.20	4.448
402.55	4.429
402.90	4.432
403.26	4.419
403.61	4.415
403.96	4.427
404.31	4.445
404.66	4.446
405.01	4.410
405.36	4.361
405.72	4.353
406.07	4.395
406.42	4.400
406.77	4.411
407.12	4.419
407.47	4.378
407.82	4.346
408.17	4.326
408.53	4.306
408.88	4.313
409.23	4.344
409.58	4.300
409.93	4.279
410.28	4.289
410.63	4.301
410.98	4.291
411.33	4.290
411.68	4.268
412.03	4.242
412.38	4.220
412.73	4.209
413.09	4.187
413.44	4.214
413.79	4.157
414.14	4.138
414.49	4.116
414.84	4.108
415.19	4.115
415.54	4.109
415.89	4.102
416.24	4.105
416.59	4.113
416.94	4.128
417.29	4.138
417.64	4.148
417.99	4.140
418.34	4.115
418.69	4.107
419.04	4.097
419.39	4.086
419.74	4.087
420.09	4.074
420.44	4.046
420.79	4.030
421.14	4.004
421.49	4.005
421.84	3.990
422.19	3.988
422.54	3.990
422.89	3.990
423.24	3.997
423.59	4.000
423.94	3.996
424.29	4.021
424.64	4.013
424.99	3.999
425.34	3.980
425.68	3.996
426.03	4.008
426.38	4.014
426.73	4.020
427.08	4.035
427.43	4.020
427.78	4.046
428.13	4.018
428.48	3.991
428.83	4.012
429.18	4.019
429.53	3.989
429.87	3.983
430.22	3.999
430.57	3.979
430.92	3.954
431.27	3.954
431.62	3.941
431.97	3.955
432.32	3.975
432.67	3.975
433.01	3.970
433.36	3.978
433.71	3.972
434.06	3.919
434.41	3.895
434.76	3.909
435.11	3.890
435.45	3.866
435.80	3.858
436.15	3.855
436.50	3.846
436.85	3.834
437.20	3.849
437.54	3.857
437.89	3.853
438.24	3.853
438.59	3.847
438.94	3.855
439.29	3.859
439.63	3.872
439.98	3.881
440.33	3.894
440.68	3.892
441.03	3.884
441.37	3.857
441.72	3.873
442.07	3.881
442.42	3.883
442.76	3.884
443.11	3.884
443.46	3.856
443.81	3.850
444.16	3.844
444.50	3.854
444.85	3.836
445.20	3.843
445.55	3.851
445.89	3.846
446.24	3.849
446.59	3.846
446.94	3.845
447.28	3.867
447.63	3.855
447.98	3.853
448.32	3.839
448.67	3.835
449.02	3.828
449.37	3.797
449.71	3.817
450.06	3.794
450.41	3.790
450.75	3.795
451.10	3.758
451.45	3.740
451.79	3.734
452.14	3.744
452.49	3.751
452.84	3.740
453.18	3.734
453.53	3.720
453.88	3.732
454.22	3.744
454.57	3.710
454.92	3.725
455.26	3.742
455.61	3.734
455.95	3.722
456.30	3.718
456.65	3.728
456.99	3.722
457.34	3.721
457.69	3.719
458.03	3.704
458.38	3.727
458.73	3.716
459.07	3.711
459.42	3.717
459.76	3.723
460.11	3.719
460.46	3.726
460.80	3.739
461.15	3.739
461.49	3.729
461.84	3.743
462.19	3.743
462.53	3.755
462.88	3.765
463.22	3.759
463.57	3.762
463.91	3.754
464.26	3.753
464.61	3.762
464.95	3.740
465.30	3.724
465.64	3.728
465.99	3.736
466.33	3.739
466.68	3.721
467.02	3.724
467.37	3.722
467.71	3.725
468.06	3.725
468.41	3.709
468.75	3.699
469.10	3.705
469.44	3.693
469.79	3.691
470.13	3.686
470.48	3.692
470.82	3.672
471.17	3.657
471.51	3.672
471.86	3.663
472.20	3.665
472.55	3.680
472.89	3.677
473.23	3.673
473.58	3.645
473.92	3.641
474.27	3.639
474.61	3.654
474.96	3.654
475.30	3.638
475.65	3.634
475.99	3.625
476.34	3.637
476.68	3.653
477.02	3.637
477.37	3.643
477.71	3.636
478.06	3.621
478.40	3.607
478.75	3.586
479.09	3.575
479.43	3.564
479.78	3.558
480.12	3.559
480.47	3.558
480.81	3.573
481.15	3.587
481.50	3.591
481.84	3.604
482.19	3.613
482.53	3.626
482.87	3.642
483.22	3.650
483.56	3.658
483.90	3.668
484.25	3.664
484.59	3.660
484.94	3.657
485.28	3.652
485.62	3.649
485.97	3.634
486.31	3.628
486.65	3.614
487.00	3.603
487.34	3.596
487.68	3.579
488.03	3.577
488.37	3.561
488.71	3.542
489.06	3.539
489.40	3.534
489.74	3.534
490.09	3.534
490.43	3.531
490.77	3.547
491.11	3.545
491.46	3.537
491.80	3.530
492.14	3.548
492.49	3.553
492.83	3.552
493.17	3.544
493.51	3.550
493.86	3.552
494.20	3.553
494.54	3.527
494.88	3.527
495.23	3.536
495.57	3.543
495.91	3.546
496.25	3.543
496.60	3.535
496.94	3.536
497.28	3.524
497.62	3.510
497.97	3.511
498.31	3.518
498.65	3.519
498.99	3.523
499.33	3.522
499.68	3.491
500.02	3.465
500.36	3.471
500.70	3.473
501.04	3.486
501.39	3.479
501.73	3.471
502.07	3.470
502.41	3.461
502.75	3.449
503.09	3.454
503.44	3.471
503.78	3.493
504.12	3.493
504.46	3.483
504.80	3.469
505.14	3.474
505.49	3.469
505.83	3.463
506.17	3.473
506.51	3.482
506.85	3.480
507.19	3.482
507.53	3.488
507.87	3.509
508.22	3.520
508.56	3.528
508.90	3.525
509.24	3.533
509.58	3.529
509.92	3.524
510.26	3.524
510.60	3.513
510.94	3.497
511.28	3.483
511.63	3.467
511.97	3.460
512.31	3.449
512.65	3.445
512.99	3.434
513.33	3.444
513.67	3.443
514.01	3.420
514.35	3.421
514.69	3.415
515.03	3.411
515.37	3.381
515.71	3.367
516.05	3.376
516.39	3.380
516.73	3.387
517.07	3.389
517.41	3.383
517.75	3.392
518.09	3.400
518.43	3.410
518.77	3.417
519.11	3.435
519.45	3.457
519.79	3.444
520.13	3.449
520.47	3.447
520.81	3.443
521.15	3.425
521.49	3.430
521.83	3.404
522.17	3.403
522.51	3.402
522.85	3.396
523.19	3.375
523.53	3.385
523.87	3.367
524.21	3.366
524.55	3.349
524.89	3.367
525.23	3.361
525.57	3.380
525.91	3.384
526.25	3.385
526.58	3.390
526.92	3.397
527.26	3.399
527.60	3.416
527.94	3.422
528.28	3.442
528.62	3.440
528.96	3.445
529.30	3.442
529.64	3.434
529.97	3.429
530.31	3.424
530.65	3.421
530.99	3.422
531.33	3.406
531.67	3.387
532.01	3.370
532.35	3.366
532.68	3.357
533.02	3.353
533.36	3.344
533.70	3.337
534.04	3.336
534.38	3.332
534.71	3.319
535.05	3.312
535.39	3.313
535.73	3.321
536.07	3.316
536.41	3.321
536.74	3.302
537.08	3.306
537.42	3.318
537.76	3.312
538.10	3.298
538.43	3.302
538.77	3.307
539.11	3.302
539.45	3.283
539.79	3.271
540.12	3.268
540.46	3.284
540.80	3.293
541.14	3.300
541.47	3.294
541.81	3.299
542.15	3.298
542.49	3.304
542.82	3.314
543.16	3.328
543.50	3.337
543.84	3.333
544.17	3.325
544.51	3.323
544.85	3.308
545.18	3.320
545.52	3.334
545.86	3.328
546.20	3.316
546.53	3.309
546.87	3.313
547.21	3.330
547.54	3.338
547.88	3.350
548.22	3.340
548.55	3.348
548.89	3.359
549.23	3.333
549.56	3.322
549.90	3.323
550.24	3.329
550.57	3.321
550.91	3.317
551.25	3.301
551.58	3.286
551.92	3.273
552.26	3.263
552.59	3.257
552.93	3.256
553.27	3.272
553.60	3.279
553.94	3.276
554.27	3.288
554.61	3.281
554.95	3.292
555.28	3.288
555.62	3.288
555.95	3.273
556.29	3.279
556.63	3.308
556.96	3.306
557.30	3.298
557.63	3.318
557.97	3.295
558.31	3.301
558.64	3.306
558.98	3.314
559.31	3.317
559.65	3.324
559.98	3.331
560.32	3.320
560.65	3.316
560.99	3.322
561.33	3.280
561.66	3.286
562.00	3.263
562.33	3.274
562.67	3.260
563.00	3.280
563.34	3.308
563.67	3.276
564.01	3.283
564.34	3.281
564.68	3.276
565.01	3.275
565.35	3.279
565.68	3.309
566.02	3.307
566.35	3.304
566.69	3.255
567.02	3.232
567.36	3.234
567.69	3.218
568.03	3.208
568.36	3.216
568.69	3.212
569.03	3.217
569.36	3.204
569.70	3.213
570.03	3.221
570.37	3.247
570.70	3.250
571.04	3.241
571.37	3.237
571.70	3.256
572.04	3.267
572.37	3.311
572.71	3.296
573.04	3.296
573.37	3.283
573.71	3.274
574.04	3.278
574.38	3.273
574.71	3.299
575.04	3.334
575.38	3.315
575.71	3.305
576.05	3.275
576.38	3.281
576.71	3.287
577.05	3.294
577.38	3.301
577.71	3.315
578.05	3.329
578.38	3.363
578.71	3.332
579.05	3.323
579.38	3.317
579.71	3.318
580.05	3.330
580.38	3.318
580.71	3.316
581.05	3.340
581.38	3.338
581.71	3.304
582.05	3.283
582.38	3.300
582.71	3.305
583.04	3.302
583.38	3.318
583.71	3.321
584.04	3.298
584.38	3.258
584.71	3.204
585.04	3.203
585.37	3.251
585.71	3.229
586.04	3.219
586.37	3.243
586.70	3.248
587.04	3.239
587.37	3.197
587.70	3.214
588.03	3.238
588.37	3.266
588.70	3.268
589.03	3.257
589.36	3.253
589.69	3.244
590.03	3.239
590.36	3.256
590.69	3.276
591.02	3.299
591.35	3.287
591.69	3.273
592.02	3.272
592.35	3.255
592.68	3.242
593.01	3.269
593.35	3.264
593.68	3.282
594.01	3.246
594.34	3.216
594.67	3.242
595.00	3.254
595.34	3.275
595.67	3.269
596.00	3.266
596.33	3.283
596.66	3.266
596.99	3.283
597.32	3.272
597.65	3.283
597.99	3.303
598.32	3.287
598.65	3.306
598.98	3.332
599.31	3.374
599.64	3.351
599.97	3.294
600.30	3.263
600.63	3.251
600.96	3.225
601.30	3.233
601.63	3.251
601.96	3.280
602.29	3.255
602.62	3.223
602.95	3.206
603.28	3.235
603.61	3.283
603.94	3.306
604.27	3.299
604.60	3.319
604.93	3.322
605.26	3.301
605.59	3.270
605.92	3.320
606.25	3.327
606.58	3.319
606.91	3.332
607.24	3.300
607.57	3.284
607.90	3.303
608.23	3.304
608.56	3.319
608.89	3.322
609.22	3.351
609.55	3.310
609.88	3.309
610.21	3.306
610.54	3.306
610.87	3.324
611.20	3.342
611.53	3.298
611.86	3.290
612.19	3.248
612.52	3.230
612.85	3.193
613.18	3.193
613.51	3.196
613.84	3.193
614.17	3.213
614.49	3.246
614.82	3.243
615.15	3.320
615.48	3.333
615.81	3.345
616.14	3.375
616.47	3.372
616.80	3.377
617.13	3.380
617.46	3.403
617.78	3.392
618.11	3.362
618.44	3.327
618.77	3.266
619.10	3.267
619.43	3.280
619.76	3.308
620.09	3.314
620.41	3.316
620.74	3.291
621.07	3.252
621.40	3.218
621.73	3.203
622.06	3.269
622.38	3.287
622.71	3.294
623.04	3.300
623.37	3.250
623.70	3.278
624.02	3.275
624.35	3.270
624.68	3.344
625.01	3.354
625.34	3.383
625.66	3.394
625.99	3.428
626.32	3.435
626.65	3.467
626.98	3.504
627.30	3.504
627.63	3.526
627.96	3.569
628.29	3.519
628.61	3.559
628.94	3.517
629.27	3.511
629.60	3.474
629.92	3.460
630.25	3.456
630.58	3.435
630.91	3.420
631.23	3.387
631.56	3.370
631.89	3.353
632.21	3.335
632.54	3.353
632.87	3.336
633.19	3.375
633.52	3.389
633.85	3.348
634.18	3.336
634.50	3.349
634.83	3.371
635.16	3.358
635.48	3.413
635.81	3.383
636.14	3.372
636.46	3.393
636.79	3.374
637.11	3.386
637.44	3.420
637.77	3.459
638.09	3.480
638.42	3.443
638.75	3.491
639.07	3.460
639.40	3.453
639.73	3.517
640.05	3.527
640.38	3.548
640.70	3.504
641.03	3.456
641.36	3.442
641.68	3.381
642.01	3.385
642.33	3.346
642.66	3.374
642.98	3.418
643.31	3.348
643.64	3.302
643.96	3.244
644.29	3.240
644.61	3.264
644.94	3.232
645.26	3.251
645.59	3.251
645.91	3.255
646.24	3.220
646.56	3.255
646.89	3.286
647.22	3.324
647.54	3.355
647.87	3.396
648.19	3.398
648.52	3.430
648.84	3.416
649.17	3.429
649.49	3.466
649.82	3.512
650.14	3.454
650.47	3.472
650.79	3.444
651.11	3.426
651.44	3.378
651.76	3.378
652.09	3.340
652.41	3.363
652.74	3.377
653.06	3.370
653.39	3.320
653.71	3.323
654.04	3.306
654.36	3.292
654.68	3.292
655.01	3.277
655.33	3.257
655.66	3.304
655.98	3.250
656.30	3.221
656.63	3.155
656.95	3.146
657.28	3.141
657.60	3.110
657.92	3.131
658.25	3.123
658.57	3.173
658.90	3.209
659.22	3.207
659.54	3.243
