OOIBase32 Version 2.0.0.6 Data File
++++++++++++++++++++++++++++++++++++
Date: 01-20-2012, 23:27:18
User: Valued Ocean Optics Customer
Spectrometer Serial Number: USB2E2917
Spectrometer Channel: Master
Integration Time (msec): 3
Spectra Averaged: 10
Boxcar Smoothing: 5
Correct for Electrical Dark: Enabled
Time Normalized: Disabled
Dual-beam Reference: Disabled
Reference Channel: Master
Temperature: Not acquired
Spectrometer Type: S2000
ADC Type: USB2000
Number of Pixels in File: 2048
Graph Title: 
>>>>>Begin Spectral Data<<<<<
180.30	0.000
180.67	0.000
181.03	414.150
181.40	96.689
181.77	-246.887
182.14	349.770
182.51	-85.270
182.88	-352.617
183.25	-68.600
183.62	226.301
183.99	-80.889
184.36	-93.374
184.73	69.372
185.10	-28.628
185.46	-184.164
185.83	-33.024
186.20	117.178
186.57	134.810
186.94	-146.101
187.31	90.977
187.68	562.352
188.05	49.135
188.42	45.766
188.78	45.270
189.15	45.107
189.52	37.409
189.89	56.789
190.26	66.028
190.63	51.914
191.00	57.090
191.37	51.964
191.73	59.064
192.10	56.194
192.47	56.909
192.84	71.891
193.21	77.314
193.58	63.211
193.94	46.415
194.31	49.064
194.68	57.267
195.05	51.100
195.42	57.809
195.79	41.405
196.15	19.821
196.52	16.869
196.89	6.794
197.26	21.956
197.63	16.446
198.00	30.097
198.36	25.591
198.73	27.589
199.10	13.392
199.47	12.457
199.84	5.330
200.20	24.365
200.57	16.227
200.94	19.570
201.31	12.861
201.68	17.155
202.04	21.845
202.41	13.161
202.78	9.962
203.15	35.759
203.51	42.009
203.88	55.599
204.25	46.793
204.62	58.220
204.98	55.491
205.35	65.736
205.72	69.696
206.09	53.989
206.46	55.244
206.82	45.428
207.19	45.206
207.56	33.414
207.92	13.581
208.29	-4.054
208.66	-10.384
209.03	-112.213
209.39	-113.800
209.76	-89.479
210.13	-115.897
210.50	-86.276
210.86	-101.026
211.23	-92.786
211.60	-67.397
211.96	-81.201
212.33	-32.662
212.70	-60.393
213.07	-5.032
213.43	10.827
213.80	3.459
214.17	26.810
214.53	22.602
214.90	11.881
215.27	13.031
215.63	-3.334
216.00	6.675
216.37	17.350
216.74	29.056
217.10	14.824
217.47	9.187
217.84	9.926
218.20	4.550
218.57	12.282
218.94	20.140
219.30	20.443
219.67	24.933
220.04	23.115
220.40	20.983
220.77	19.941
221.13	21.789
221.50	24.687
221.87	22.479
222.23	22.253
222.60	20.070
222.97	24.241
223.33	21.939
223.70	20.558
224.07	18.263
224.43	15.546
224.80	17.482
225.16	18.235
225.53	17.632
225.90	19.135
226.26	17.964
226.63	17.630
226.99	15.422
227.36	13.800
227.73	13.878
228.09	15.616
228.46	16.369
228.82	15.394
229.19	15.070
229.56	14.248
229.92	13.229
230.29	13.447
230.65	13.235
231.02	13.668
231.38	15.272
231.75	14.722
232.12	12.825
232.48	11.836
232.85	11.729
233.21	11.076
233.58	12.810
233.94	15.425
234.31	16.244
234.68	14.914
235.04	15.144
235.41	14.859
235.77	14.880
236.14	16.311
236.50	16.357
236.87	14.850
237.23	14.611
237.60	13.067
237.96	10.719
238.33	9.263
238.69	9.274
239.06	8.708
239.42	8.359
239.79	7.470
240.15	6.219
240.52	6.193
240.88	7.006
241.25	6.474
241.61	6.618
241.98	6.928
242.34	7.308
242.71	7.650
243.07	7.800
243.44	8.035
243.80	8.253
244.17	8.163
244.53	7.617
244.90	7.371
245.26	7.501
245.63	7.191
245.99	6.735
246.36	6.458
246.72	6.233
247.09	5.821
247.45	5.482
247.81	5.561
248.18	5.407
248.54	5.326
248.91	4.783
249.27	4.773
249.64	4.607
250.00	4.719
250.36	5.250
250.73	5.192
251.09	5.555
251.46	6.001
251.82	5.799
252.19	5.981
252.55	6.358
252.91	7.116
253.28	6.297
253.64	6.751
254.01	6.721
254.37	5.646
254.73	5.787
255.10	5.239
255.46	5.132
255.83	4.953
256.19	5.272
256.55	5.270
256.92	5.181
257.28	5.439
257.65	5.276
258.01	5.456
258.37	5.416
258.74	5.067
259.10	4.923
259.46	4.911
259.83	4.969
260.19	4.794
260.55	4.853
260.92	4.517
261.28	4.516
261.64	4.662
262.01	4.614
262.37	4.825
262.73	5.397
263.10	5.993
263.46	6.150
263.82	6.347
264.19	6.215
264.55	5.970
264.91	6.239
265.28	5.827
265.64	5.614
266.00	5.573
266.37	5.690
266.73	5.538
267.09	5.428
267.46	5.262
267.82	5.296
268.18	5.493
268.54	5.469
268.91	5.494
269.27	5.698
269.63	5.718
270.00	5.610
270.36	5.622
270.72	5.599
271.08	5.682
271.45	5.563
271.81	5.493
272.17	5.510
272.53	5.679
272.90	5.564
273.26	5.624
273.62	5.531
273.98	5.255
274.35	4.995
274.71	5.160
275.07	5.381
275.43	5.206
275.80	4.902
276.16	4.557
276.52	4.268
276.88	4.456
277.25	4.400
277.61	4.354
277.97	4.557
278.33	4.579
278.69	4.298
279.06	4.058
279.42	4.457
279.78	4.724
280.14	4.947
280.50	4.893
280.87	4.826
281.23	4.585
281.59	4.563
281.95	4.672
282.31	4.570
282.68	4.693
283.04	4.713
283.40	4.747
283.76	4.487
284.12	4.717
284.48	5.082
284.85	5.047
285.21	5.307
285.57	5.396
285.93	5.189
286.29	5.311
286.65	5.155
287.02	5.049
287.38	4.932
287.74	5.130
288.10	4.778
288.46	4.603
288.82	4.754
289.18	4.750
289.54	4.802
289.91	5.087
290.27	5.043
290.63	5.114
290.99	5.317
291.35	5.294
291.71	5.342
292.07	5.655
292.43	5.595
292.79	5.486
293.16	5.517
293.52	5.366
293.88	5.094
294.24	5.176
294.60	5.320
294.96	5.293
295.32	5.481
295.68	5.734
296.04	5.681
296.40	5.977
296.76	6.238
297.12	6.315
297.49	6.548
297.85	6.928
298.21	7.307
298.57	7.644
298.93	8.027
299.29	8.203
299.65	8.258
300.01	8.549
300.37	8.715
300.73	8.826
301.09	9.035
301.45	9.349
301.81	9.571
302.17	9.714
302.53	9.908
302.89	10.029
303.25	10.342
303.61	10.560
303.97	10.949
304.33	11.321
304.69	11.707
305.05	12.042
305.41	12.256
305.77	12.630
306.13	13.015
306.49	13.171
306.85	13.545
307.21	13.779
307.57	14.200
307.93	14.396
308.29	14.597
308.65	14.964
309.01	15.196
309.37	15.574
309.73	15.811
310.09	16.020
310.45	16.271
310.81	16.469
311.17	16.705
311.53	16.837
311.89	17.025
312.25	17.233
312.61	17.205
312.96	17.403
313.32	17.425
313.68	17.397
314.04	17.415
314.40	17.615
314.76	17.723
315.12	17.598
315.48	17.774
315.84	17.868
316.20	17.783
316.56	17.932
316.92	17.882
317.27	18.030
317.63	18.080
317.99	18.021
318.35	17.907
318.71	17.919
319.07	18.047
319.43	17.931
319.79	17.881
320.15	17.895
320.50	17.730
320.86	17.720
321.22	17.528
321.58	17.514
321.94	17.422
322.30	17.540
322.66	17.504
323.01	17.477
323.37	17.472
323.73	17.382
324.09	17.326
324.45	17.337
324.81	17.316
325.17	17.330
325.52	17.369
325.88	17.456
326.24	17.253
326.60	17.186
326.96	17.143
327.31	17.046
327.67	17.047
328.03	16.982
328.39	16.913
328.75	16.895
329.11	16.923
329.46	16.799
329.82	16.830
330.18	16.811
330.54	16.741
330.90	16.704
331.25	16.574
331.61	16.495
331.97	16.512
332.33	16.519
332.68	16.466
333.04	16.442
333.40	16.456
333.76	16.297
334.11	16.314
334.47	16.242
334.83	16.200
335.19	16.330
335.54	16.404
335.90	16.259
336.26	16.233
336.62	16.174
336.97	16.144
337.33	16.014
337.69	15.966
338.05	15.920
338.40	15.913
338.76	15.894
339.12	15.700
339.48	15.462
339.83	15.463
340.19	15.356
340.55	15.364
340.90	15.287
341.26	15.331
341.62	15.308
341.97	15.266
342.33	15.254
342.69	15.167
343.04	15.238
343.40	15.334
343.76	15.274
344.12	15.195
344.47	15.170
344.83	15.193
345.19	15.096
345.54	15.107
345.90	15.006
346.26	14.941
346.61	14.907
346.97	14.889
347.32	14.846
347.68	14.838
348.04	14.807
348.39	14.753
348.75	14.605
349.11	14.656
349.46	14.592
349.82	14.582
350.18	14.552
350.53	14.507
350.89	14.397
351.24	14.352
351.60	14.383
351.96	14.322
352.31	14.236
352.67	14.270
353.02	14.268
353.38	14.278
353.74	14.223
354.09	14.158
354.45	14.068
354.80	14.104
355.16	14.050
355.52	13.994
355.87	14.100
356.23	14.090
356.58	13.997
356.94	13.867
357.29	13.733
357.65	13.724
358.00	13.584
358.36	13.594
358.72	13.523
359.07	13.467
359.43	13.342
359.78	13.256
360.14	13.202
360.49	13.153
360.85	13.157
361.20	13.190
361.56	13.177
361.91	13.274
362.27	13.207
362.62	13.139
362.98	13.189
363.33	13.201
363.69	13.152
364.04	13.093
364.40	13.012
364.75	12.900
365.11	12.766
365.46	12.738
365.82	12.632
366.17	12.703
366.53	12.711
366.88	12.536
367.24	12.477
367.59	12.445
367.95	12.432
368.30	12.504
368.66	12.493
369.01	12.526
369.37	12.488
369.72	12.436
370.08	12.331
370.43	12.288
370.78	12.343
371.14	12.334
371.49	12.258
371.85	12.217
372.20	12.145
372.56	12.088
372.91	12.048
373.26	11.949
373.62	11.980
373.97	11.937
374.33	11.893
374.68	11.824
375.03	11.805
375.39	11.792
375.74	11.734
376.10	11.703
376.45	11.652
376.80	11.588
377.16	11.583
377.51	11.541
377.87	11.480
378.22	11.423
378.57	11.393
378.93	11.336
379.28	11.313
379.63	11.251
379.99	11.144
380.34	11.086
380.70	11.084
381.05	11.013
381.40	10.956
381.76	10.951
382.11	10.894
382.46	10.850
382.82	10.789
383.17	10.710
383.52	10.733
383.88	10.700
384.23	10.688
384.58	10.619
384.94	10.624
385.29	10.574
385.64	10.529
385.99	10.438
386.35	10.345
386.70	10.350
387.05	10.345
387.41	10.272
387.76	10.211
388.11	10.171
388.47	10.132
388.82	10.041
389.17	9.987
389.52	9.899
389.88	9.908
390.23	9.866
390.58	9.804
390.93	9.722
391.29	9.627
391.64	9.618
391.99	9.557
392.34	9.489
392.70	9.435
393.05	9.342
393.40	9.305
393.75	9.251
394.11	9.202
394.46	9.128
394.81	9.067
395.16	9.090
395.52	9.050
395.87	9.009
396.22	8.954
396.57	8.893
396.92	8.836
397.28	8.767
397.63	8.706
397.98	8.653
398.33	8.593
398.68	8.554
399.04	8.420
399.39	8.341
399.74	8.294
400.09	8.274
400.44	8.234
400.80	8.172
401.15	8.131
401.50	8.069
401.85	8.058
402.20	8.030
402.55	7.986
402.90	7.972
403.26	7.918
403.61	7.880
403.96	7.815
404.31	7.772
404.66	7.781
405.01	7.774
405.36	7.760
405.72	7.682
406.07	7.655
406.42	7.618
406.77	7.601
407.12	7.570
407.47	7.526
407.82	7.487
408.17	7.456
408.53	7.415
408.88	7.356
409.23	7.302
409.58	7.277
409.93	7.217
410.28	7.165
410.63	7.146
410.98	7.096
411.33	7.097
411.68	7.074
412.03	7.066
412.38	7.090
412.73	7.092
413.09	7.044
413.44	7.038
413.79	6.995
414.14	6.978
414.49	6.952
414.84	6.959
415.19	6.911
415.54	6.890
415.89	6.839
416.24	6.792
416.59	6.732
416.94	6.712
417.29	6.677
417.64	6.668
417.99	6.641
418.34	6.595
418.69	6.581
419.04	6.559
419.39	6.538
419.74	6.503
420.09	6.472
420.44	6.464
420.79	6.448
421.14	6.416
421.49	6.403
421.84	6.385
422.19	6.360
422.54	6.324
422.89	6.312
423.24	6.312
423.59	6.321
423.94	6.313
424.29	6.327
424.64	6.339
424.99	6.352
425.34	6.329
425.68	6.309
426.03	6.352
426.38	6.362
426.73	6.343
427.08	6.305
427.43	6.311
427.78	6.316
428.13	6.290
428.48	6.286
428.83	6.294
429.18	6.305
429.53	6.338
429.87	6.300
430.22	6.298
430.57	6.313
430.92	6.323
431.27	6.312
431.62	6.282
431.97	6.269
432.32	6.267
432.67	6.250
433.01	6.257
433.36	6.233
433.71	6.258
434.06	6.242
434.41	6.242
434.76	6.258
435.11	6.278
435.45	6.334
435.80	6.352
436.15	6.354
436.50	6.386
436.85	6.374
437.20	6.406
437.54	6.402
437.89	6.419
438.24	6.426
438.59	6.432
438.94	6.411
439.29	6.387
439.63	6.389
439.98	6.397
440.33	6.377
440.68	6.380
441.03	6.381
441.37	6.384
441.72	6.399
442.07	6.405
442.42	6.384
442.76	6.403
443.11	6.399
443.46	6.397
443.81	6.408
444.16	6.433
444.50	6.429
444.85	6.430
445.20	6.430
445.55	6.430
445.89	6.423
446.24	6.431
446.59	6.422
446.94	6.428
447.28	6.418
447.63	6.400
447.98	6.382
448.32	6.405
448.67	6.375
449.02	6.366
449.37	6.359
449.71	6.341
450.06	6.335
450.41	6.318
450.75	6.301
451.10	6.312
451.45	6.311
451.79	6.312
452.14	6.285
452.49	6.306
452.84	6.327
453.18	6.285
453.53	6.291
453.88	6.309
454.22	6.325
454.57	6.356
454.92	6.350
455.26	6.337
455.61	6.314
455.95	6.309
456.30	6.295
456.65	6.267
456.99	6.302
457.34	6.299
457.69	6.288
458.03	6.282
458.38	6.261
458.73	6.276
459.07	6.278
459.42	6.277
459.76	6.291
460.11	6.298
460.46	6.296
460.80	6.284
461.15	6.287
461.49	6.277
461.84	6.279
462.19	6.306
462.53	6.278
462.88	6.299
463.22	6.315
463.57	6.306
463.91	6.310
464.26	6.366
464.61	6.379
464.95	6.381
465.30	6.373
465.64	6.403
465.99	6.406
466.33	6.436
466.68	6.438
467.02	6.447
467.37	6.448
467.71	6.476
468.06	6.481
468.41	6.495
468.75	6.516
469.10	6.530
469.44	6.526
469.79	6.528
470.13	6.524
470.48	6.521
470.82	6.524
471.17	6.521
471.51	6.492
471.86	6.464
472.20	6.445
472.55	6.434
472.89	6.447
473.23	6.428
473.58	6.400
473.92	6.386
474.27	6.359
474.61	6.355
474.96	6.353
475.30	6.340
475.65	6.304
475.99	6.293
476.34	6.292
476.68	6.271
477.02	6.247
477.37	6.252
477.71	6.226
478.06	6.230
478.40	6.221
478.75	6.247
479.09	6.249
479.43	6.268
479.78	6.282
480.12	6.303
480.47	6.309
480.81	6.331
481.15	6.356
481.50	6.382
481.84	6.407
482.19	6.423
482.53	6.431
482.87	6.439
483.22	6.444
483.56	6.446
483.90	6.430
484.25	6.429
484.59	6.423
484.94	6.399
485.28	6.374
485.62	6.345
485.97	6.317
486.31	6.294
486.65	6.278
487.00	6.257
487.34	6.241
487.68	6.242
488.03	6.239
488.37	6.237
488.71	6.228
489.06	6.237
489.40	6.250
489.74	6.254
490.09	6.255
490.43	6.272
490.77	6.283
491.11	6.295
491.46	6.301
491.80	6.318
492.14	6.314
492.49	6.327
492.83	6.341
493.17	6.336
493.51	6.360
493.86	6.380
494.20	6.397
494.54	6.426
494.88	6.440
495.23	6.459
495.57	6.476
495.91	6.506
496.25	6.533
496.60	6.552
496.94	6.584
497.28	6.606
497.62	6.639
497.97	6.658
498.31	6.681
498.65	6.722
498.99	6.744
499.33	6.772
499.68	6.819
500.02	6.863
500.36	6.888
500.70	6.920
501.04	6.952
501.39	6.990
501.73	7.025
502.07	7.086
502.41	7.101
502.75	7.139
503.09	7.171
503.44	7.189
503.78	7.232
504.12	7.285
504.46	7.341
504.80	7.396
505.14	7.428
505.49	7.480
505.83	7.501
506.17	7.570
506.51	7.607
506.85	7.675
507.19	7.736
507.53	7.772
507.87	7.818
508.22	7.846
508.56	7.878
508.90	7.930
509.24	7.956
509.58	7.998
509.92	8.033
510.26	8.095
510.60	8.109
510.94	8.142
511.28	8.201
511.63	8.245
511.97	8.294
512.31	8.326
512.65	8.356
512.99	8.413
513.33	8.448
513.67	8.492
514.01	8.532
514.35	8.583
514.69	8.609
515.03	8.627
515.37	8.656
515.71	8.670
516.05	8.687
516.39	8.705
516.73	8.697
517.07	8.716
517.41	8.723
517.75	8.722
518.09	8.731
518.43	8.748
518.77	8.759
519.11	8.754
519.45	8.772
519.79	8.795
520.13	8.791
520.47	8.815
520.81	8.844
521.15	8.839
521.49	8.855
521.83	8.858
522.17	8.879
522.51	8.884
522.85	8.898
523.19	8.912
523.53	8.930
523.87	8.964
524.21	8.986
524.55	8.990
524.89	9.018
525.23	9.038
525.57	9.058
525.91	9.061
526.25	9.071
526.58	9.072
526.92	9.078
527.26	9.080
527.60	9.067
527.94	9.055
528.28	9.045
528.62	9.036
528.96	9.008
529.30	8.985
529.64	8.958
529.97	8.943
530.31	8.919
530.65	8.882
530.99	8.845
531.33	8.822
531.67	8.807
532.01	8.785
532.35	8.764
532.68	8.759
533.02	8.734
533.36	8.731
533.70	8.699
534.04	8.686
534.38	8.673
534.71	8.675
535.05	8.665
535.39	8.657
535.73	8.637
536.07	8.617
536.41	8.591
536.74	8.601
537.08	8.594
537.42	8.589
537.76	8.577
538.10	8.577
538.43	8.577
538.77	8.570
539.11	8.566
539.45	8.567
539.79	8.558
540.12	8.555
540.46	8.539
540.80	8.519
541.14	8.511
541.47	8.522
541.81	8.521
542.15	8.502
542.49	8.502
542.82	8.491
543.16	8.487
543.50	8.488
543.84	8.478
544.17	8.453
544.51	8.447
544.85	8.433
545.18	8.409
545.52	8.366
545.86	8.360
546.20	8.346
546.53	8.331
546.87	8.317
547.21	8.286
547.54	8.268
547.88	8.286
548.22	8.280
548.55	8.271
548.89	8.242
549.23	8.250
549.56	8.227
549.90	8.180
550.24	8.171
550.57	8.149
550.91	8.148
551.25	8.156
551.58	8.147
551.92	8.143
552.26	8.140
552.59	8.159
552.93	8.168
553.27	8.179
553.60	8.226
553.94	8.229
554.27	8.235
554.61	8.265
554.95	8.294
555.28	8.303
555.62	8.307
555.95	8.319
556.29	8.325
556.63	8.323
556.96	8.304
557.30	8.278
557.63	8.283
557.97	8.268
558.31	8.233
558.64	8.199
558.98	8.179
559.31	8.175
559.65	8.174
559.98	8.170
560.32	8.147
560.65	8.156
560.99	8.164
561.33	8.170
561.66	8.178
562.00	8.189
562.33	8.187
562.67	8.204
563.00	8.179
563.34	8.173
563.67	8.153
564.01	8.173
564.34	8.155
564.68	8.148
565.01	8.139
565.35	8.146
565.68	8.162
566.02	8.171
566.35	8.181
566.69	8.204
567.02	8.202
567.36	8.242
567.69	8.230
568.03	8.255
568.36	8.252
568.69	8.259
569.03	8.261
569.36	8.252
569.70	8.253
570.03	8.234
570.37	8.248
570.70	8.268
571.04	8.237
571.37	8.241
571.70	8.240
572.04	8.233
572.37	8.231
572.71	8.209
573.04	8.215
573.37	8.207
573.71	8.225
574.04	8.204
574.38	8.190
574.71	8.202
575.04	8.191
575.38	8.188
575.71	8.214
576.05	8.200
576.38	8.235
576.71	8.224
577.05	8.256
577.38	8.273
577.71	8.295
578.05	8.304
578.38	8.312
578.71	8.354
579.05	8.359
579.38	8.354
579.71	8.379
580.05	8.387
580.38	8.374
580.71	8.338
581.05	8.328
581.38	8.358
581.71	8.399
582.05	8.427
582.38	8.394
582.71	8.424
583.04	8.472
583.38	8.477
583.71	8.484
584.04	8.539
584.38	8.561
584.71	8.554
585.04	8.531
585.37	8.494
585.71	8.473
586.04	8.511
586.37	8.520
586.70	8.490
587.04	8.508
587.37	8.546
587.70	8.569
588.03	8.605
588.37	8.606
588.70	8.653
589.03	8.685
589.36	8.705
589.69	8.760
590.03	8.771
590.36	8.821
590.69	8.832
591.02	8.826
591.35	8.840
591.69	8.855
592.02	8.886
592.35	8.914
592.68	8.943
593.01	8.985
593.35	8.957
593.68	8.978
594.01	8.997
594.34	9.021
594.67	9.042
595.00	9.045
595.34	9.068
595.67	9.113
596.00	9.110
596.33	9.127
596.66	9.136
596.99	9.184
597.32	9.180
597.65	9.210
597.99	9.218
598.32	9.228
598.65	9.232
598.98	9.250
599.31	9.242
599.64	9.244
599.97	9.265
600.30	9.287
600.63	9.305
600.96	9.365
601.30	9.341
601.63	9.355
601.96	9.374
602.29	9.389
602.62	9.402
602.95	9.420
603.28	9.475
603.61	9.471
603.94	9.474
604.27	9.516
604.60	9.522
604.93	9.565
605.26	9.569
605.59	9.594
605.92	9.609
606.25	9.599
606.58	9.587
606.91	9.592
607.24	9.621
607.57	9.647
607.90	9.610
608.23	9.614
608.56	9.614
608.89	9.641
609.22	9.628
609.55	9.613
609.88	9.613
610.21	9.629
610.54	9.636
610.87	9.642
611.20	9.655
611.53	9.641
611.86	9.628
612.19	9.630
612.52	9.660
612.85	9.722
613.18	9.741
613.51	9.765
613.84	9.820
614.17	9.766
614.49	9.780
614.82	9.763
615.15	9.752
615.48	9.767
615.81	9.776
616.14	9.747
616.47	9.702
616.80	9.763
617.13	9.783
617.46	9.765
617.78	9.810
618.11	9.797
618.44	9.779
618.77	9.787
619.10	9.792
619.43	9.778
619.76	9.772
620.09	9.753
620.41	9.706
620.74	9.683
621.07	9.682
621.40	9.669
621.73	9.714
622.06	9.745
622.38	9.812
622.71	9.816
623.04	9.821
623.37	9.805
623.70	9.800
624.02	9.838
624.35	9.854
624.68	9.840
625.01	9.862
625.34	9.847
625.66	9.845
625.99	9.818
626.32	9.828
626.65	9.826
626.98	9.854
627.30	9.877
627.63	9.838
627.96	9.840
628.29	9.812
628.61	9.820
628.94	9.820
629.27	9.814
629.60	9.811
629.92	9.800
630.25	9.783
630.58	9.786
630.91	9.777
631.23	9.787
631.56	9.805
631.89	9.862
632.21	9.828
632.54	9.818
632.87	9.801
633.19	9.820
633.52	9.779
633.85	9.779
634.18	9.782
634.50	9.779
634.83	9.818
635.16	9.773
635.48	9.742
635.81	9.720
636.14	9.688
636.46	9.682
636.79	9.658
637.11	9.667
637.44	9.625
637.77	9.592
638.09	9.622
638.42	9.593
638.75	9.631
639.07	9.652
639.40	9.639
639.73	9.658
640.05	9.686
640.38	9.691
640.70	9.691
641.03	9.745
641.36	9.744
641.68	9.730
642.01	9.739
642.33	9.710
642.66	9.703
642.98	9.735
643.31	9.745
643.64	9.728
643.96	9.665
644.29	9.721
644.61	9.723
644.94	9.757
645.26	9.724
645.59	9.682
645.91	9.696
646.24	9.685
646.56	9.655
646.89	9.656
647.22	9.656
647.54	9.691
647.87	9.679
648.19	9.701
648.52	9.685
648.84	9.690
649.17	9.678
649.49	9.689
649.82	9.644
650.14	9.672
650.47	9.626
650.79	9.610
651.11	9.594
651.44	9.549
651.76	9.523
652.09	9.502
652.41	9.490
652.74	9.452
653.06	9.437
653.39	9.489
