OOIBase32 Version 2.0.0.6 Data File
++++++++++++++++++++++++++++++++++++
Date: 01-19-2012, 17:23:35
User: Valued Ocean Optics Customer
Spectrometer Serial Number: USB2E2917
Spectrometer Channel: Master
Integration Time (msec): 6
Spectra Averaged: 10
Boxcar Smoothing: 5
Correct for Electrical Dark: Enabled
Time Normalized: Disabled
Dual-beam Reference: Disabled
Reference Channel: Master
Temperature: Not acquired
Spectrometer Type: S2000
ADC Type: USB2000
Number of Pixels in File: 2048
Graph Title: 
>>>>>Begin Spectral Data<<<<<
180.30	0.000
180.67	0.000
181.03	20.538
181.40	4.044
181.77	-19.195
182.14	146.496
182.51	201.643
182.88	13.276
183.25	466.546
183.62	-143.861
183.99	-618.848
184.36	14.038
184.73	-35.692
185.10	71.670
185.46	78.847
185.83	37.898
186.20	155.782
186.57	99.332
186.94	82.957
187.31	220.640
187.68	72.016
188.05	78.510
188.42	66.729
188.78	51.249
189.15	57.994
189.52	41.783
189.89	37.539
190.26	34.187
190.63	38.755
191.00	24.720
191.37	27.916
191.73	16.691
192.10	16.332
192.47	12.788
192.84	17.550
193.21	6.627
193.58	-4.559
193.94	-14.910
194.31	-25.626
194.68	-29.111
195.05	-42.705
195.42	-66.699
195.79	-62.030
196.15	-49.245
196.52	-36.254
196.89	-53.363
197.26	-47.228
197.63	-45.360
198.00	-44.197
198.36	-42.489
198.73	-41.975
199.10	-21.022
199.47	-7.498
199.84	-5.119
200.20	-1.099
200.57	-20.484
200.94	-2.570
201.31	2.154
201.68	7.797
202.04	9.728
202.41	9.353
202.78	11.754
203.15	10.008
203.51	15.157
203.88	14.077
204.25	19.303
204.62	37.533
204.98	36.059
205.35	26.178
205.72	29.117
206.09	18.918
206.46	25.406
206.82	32.829
207.19	23.872
207.56	0.923
207.92	10.749
208.29	-15.679
208.66	-28.517
209.03	-18.546
209.39	-4.182
209.76	1.693
210.13	7.787
210.50	10.152
210.86	0.418
211.23	10.896
211.60	16.694
211.96	13.206
212.33	17.272
212.70	20.209
213.07	20.246
213.43	24.781
213.80	20.340
214.17	22.237
214.53	16.325
214.90	20.025
215.27	13.762
215.63	11.108
216.00	9.721
216.37	16.049
216.74	13.797
217.10	9.961
217.47	5.913
217.84	6.179
218.20	11.552
218.57	11.993
218.94	6.241
219.30	1.734
219.67	4.725
220.04	2.863
220.40	-5.402
220.77	-5.539
221.13	-5.879
221.50	-7.624
221.87	-6.993
222.23	-7.315
222.60	-8.567
222.97	-7.655
223.33	-0.489
223.70	-0.882
224.07	-0.703
224.43	0.577
224.80	-0.399
225.16	1.055
225.53	3.257
225.90	3.745
226.26	3.087
226.63	2.877
226.99	4.270
227.36	3.658
227.73	4.539
228.09	4.319
228.46	4.284
228.82	5.118
229.19	4.219
229.56	2.861
229.92	2.299
230.29	3.042
230.65	4.680
231.02	4.121
231.38	4.363
231.75	2.771
232.12	4.285
232.48	5.433
232.85	6.734
233.21	8.360
233.58	7.098
233.94	7.417
234.31	7.244
234.68	5.624
235.04	6.711
235.41	6.012
235.77	6.375
236.14	5.382
236.50	5.309
236.87	3.698
237.23	3.938
237.60	4.865
237.96	4.914
238.33	4.944
238.69	5.105
239.06	3.943
239.42	4.046
239.79	4.201
240.15	4.348
240.52	4.582
240.88	4.634
241.25	4.277
241.61	4.719
241.98	5.015
242.34	4.498
242.71	4.311
243.07	4.397
243.44	4.348
243.80	4.150
244.17	3.941
244.53	3.828
244.90	3.639
245.26	3.558
245.63	3.088
245.99	2.691
246.36	3.057
246.72	3.152
247.09	3.247
247.45	3.421
247.81	3.477
248.18	3.482
248.54	3.292
248.91	3.400
249.27	3.270
249.64	3.391
250.00	3.865
250.36	3.536
250.73	3.306
251.09	3.220
251.46	3.205
251.82	3.098
252.19	3.180
252.55	3.140
252.91	3.353
253.28	4.158
253.64	4.469
254.01	4.126
254.37	4.446
254.73	4.480
255.10	4.193
255.46	3.862
255.83	3.655
256.19	3.734
256.55	3.886
256.92	3.810
257.28	3.577
257.65	3.374
258.01	3.621
258.37	3.271
258.74	3.218
259.10	3.150
259.46	3.193
259.83	3.280
260.19	3.268
260.55	2.992
260.92	2.833
261.28	2.599
261.64	2.656
262.01	2.586
262.37	2.950
262.73	3.469
263.10	3.854
263.46	3.618
263.82	3.571
264.19	3.352
264.55	3.567
264.91	3.576
265.28	3.759
265.64	3.943
266.00	3.655
266.37	3.462
266.73	3.189
267.09	3.162
267.46	3.158
267.82	3.260
268.18	3.035
268.54	3.004
268.91	3.075
269.27	3.001
269.63	2.786
270.00	2.733
270.36	2.503
270.72	2.540
271.08	2.475
271.45	2.561
271.81	2.507
272.17	2.861
272.53	2.991
272.90	3.002
273.26	2.966
273.62	2.946
273.98	3.049
274.35	3.244
274.71	3.226
275.07	3.067
275.43	3.133
275.80	3.158
276.16	3.203
276.52	3.004
276.88	3.026
277.25	3.122
277.61	3.271
277.97	3.198
278.33	3.196
278.69	2.952
279.06	2.894
279.42	2.889
279.78	2.815
280.14	2.683
280.50	2.938
280.87	2.958
281.23	2.895
281.59	2.859
281.95	2.867
282.31	2.812
282.68	2.874
283.04	2.946
283.40	2.961
283.76	3.083
284.12	3.128
284.48	2.981
284.85	2.912
285.21	2.862
285.57	2.784
285.93	2.622
286.29	2.624
286.65	2.860
287.02	2.968
287.38	2.903
287.74	2.830
288.10	2.825
288.46	2.793
288.82	2.941
289.18	3.111
289.54	3.064
289.91	3.244
290.27	3.462
290.63	3.255
290.99	3.165
291.35	3.092
291.71	3.103
292.07	2.958
292.43	2.945
292.79	2.831
293.16	2.696
293.52	2.650
293.88	2.782
294.24	2.803
294.60	2.752
294.96	2.795
295.32	2.848
295.68	2.804
296.04	2.889
296.40	2.917
296.76	2.873
297.12	2.939
297.49	3.237
297.85	3.181
298.21	3.151
298.57	3.170
298.93	3.039
299.29	3.135
299.65	3.045
300.01	3.100
300.37	3.289
300.73	3.334
301.09	3.234
301.45	3.196
301.81	2.932
302.17	2.957
302.53	2.884
302.89	3.101
303.25	3.101
303.61	3.189
303.97	3.174
304.33	3.018
304.69	3.071
305.05	3.215
305.41	3.089
305.77	3.397
306.13	3.337
306.49	3.397
306.85	3.275
307.21	3.237
307.57	3.360
307.93	3.309
308.29	3.301
308.65	3.312
309.01	3.200
309.37	3.254
309.73	3.083
310.09	3.047
310.45	3.038
310.81	3.168
311.17	3.217
311.53	3.165
311.89	3.123
312.25	3.201
312.61	3.245
312.96	3.278
313.32	3.396
313.68	3.498
314.04	3.536
314.40	3.764
314.76	3.785
315.12	3.735
315.48	3.690
315.84	3.769
316.20	3.795
316.56	3.673
316.92	3.855
317.27	3.615
317.63	3.647
317.99	3.853
318.35	3.781
318.71	3.606
319.07	3.530
319.43	3.710
319.79	3.730
320.15	3.843
320.50	4.026
320.86	3.867
321.22	4.084
321.58	4.140
321.94	4.020
322.30	3.995
322.66	4.148
323.01	4.220
323.37	4.240
323.73	4.395
324.09	4.383
324.45	4.376
324.81	4.479
325.17	4.410
325.52	4.461
325.88	4.531
326.24	4.661
326.60	4.764
326.96	4.907
327.31	4.965
327.67	4.954
328.03	4.916
328.39	4.961
328.75	5.022
329.11	4.989
329.46	5.035
329.82	5.109
330.18	5.131
330.54	5.128
330.90	5.084
331.25	5.167
331.61	5.293
331.97	5.371
332.33	5.393
332.68	5.428
333.04	5.654
333.40	5.750
333.76	5.822
334.11	5.789
334.47	5.747
334.83	5.812
335.19	5.660
335.54	5.645
335.90	5.561
336.26	5.551
336.62	5.458
336.97	5.391
337.33	5.339
337.69	5.277
338.05	5.322
338.40	5.374
338.76	5.289
339.12	5.308
339.48	5.118
339.83	5.291
340.19	5.351
340.55	5.514
340.90	5.518
341.26	5.564
341.62	5.584
341.97	5.559
342.33	5.541
342.69	5.648
343.04	5.768
343.40	5.893
343.76	5.884
344.12	5.871
344.47	5.827
344.83	5.889
345.19	5.878
345.54	5.927
345.90	5.918
346.26	5.937
346.61	5.966
346.97	5.937
347.32	5.972
347.68	5.969
348.04	5.997
348.39	6.023
348.75	5.968
349.11	6.020
349.46	6.041
349.82	6.050
350.18	6.057
350.53	6.008
350.89	6.039
351.24	6.127
351.60	6.159
351.96	6.095
352.31	6.136
352.67	6.186
353.02	6.133
353.38	6.094
353.74	6.121
354.09	6.197
354.45	6.208
354.80	6.159
355.16	6.113
355.52	6.075
355.87	6.094
356.23	6.042
356.58	6.068
356.94	6.063
357.29	6.058
357.65	6.080
358.00	6.097
358.36	6.182
358.72	6.160
359.07	6.048
359.43	6.061
359.78	6.023
360.14	6.007
360.49	6.043
360.85	6.061
361.20	6.090
361.56	6.116
361.91	6.074
362.27	6.023
362.62	6.049
362.98	6.175
363.33	6.207
363.69	6.303
364.04	6.351
364.40	6.314
364.75	6.340
365.11	6.321
365.46	6.311
365.82	6.375
366.17	6.391
366.53	6.415
366.88	6.388
367.24	6.400
367.59	6.392
367.95	6.432
368.30	6.505
368.66	6.508
369.01	6.503
369.37	6.558
369.72	6.526
370.08	6.561
370.43	6.577
370.78	6.612
371.14	6.622
371.49	6.657
371.85	6.644
372.20	6.604
372.56	6.620
372.91	6.640
373.26	6.641
373.62	6.686
373.97	6.719
374.33	6.789
374.68	6.819
375.03	6.783
375.39	6.799
375.74	6.844
376.10	6.834
376.45	6.863
376.80	6.911
377.16	6.931
377.51	6.944
377.87	6.913
378.22	6.883
378.57	6.863
378.93	6.870
379.28	6.912
379.63	6.934
379.99	6.947
380.34	6.954
380.70	6.939
381.05	6.955
381.40	6.976
381.76	7.052
382.11	7.111
382.46	7.176
382.82	7.255
383.17	7.237
383.52	7.254
383.88	7.288
384.23	7.304
384.58	7.399
384.94	7.436
385.29	7.410
385.64	7.359
385.99	7.349
386.35	7.298
386.70	7.294
387.05	7.279
387.41	7.267
387.76	7.278
388.11	7.285
388.47	7.216
388.82	7.194
389.17	7.226
389.52	7.227
389.88	7.230
390.23	7.253
390.58	7.238
390.93	7.258
391.29	7.278
391.64	7.271
391.99	7.262
392.34	7.266
392.70	7.269
393.05	7.272
393.40	7.280
393.75	7.274
394.11	7.295
394.46	7.280
394.81	7.246
395.16	7.228
395.52	7.230
395.87	7.234
396.22	7.258
396.57	7.259
396.92	7.270
397.28	7.305
397.63	7.305
397.98	7.290
398.33	7.323
398.68	7.356
399.04	7.329
399.39	7.339
399.74	7.290
400.09	7.273
400.44	7.275
400.80	7.264
401.15	7.219
401.50	7.228
401.85	7.243
402.20	7.205
402.55	7.218
402.90	7.255
403.26	7.233
403.61	7.267
403.96	7.277
404.31	7.300
404.66	7.294
405.01	7.308
405.36	7.311
405.72	7.291
406.07	7.324
406.42	7.340
406.77	7.345
407.12	7.333
407.47	7.357
407.82	7.352
408.17	7.312
408.53	7.316
408.88	7.322
409.23	7.274
409.58	7.267
409.93	7.252
410.28	7.229
410.63	7.188
410.98	7.181
411.33	7.174
411.68	7.178
412.03	7.148
412.38	7.112
412.73	7.092
413.09	7.102
413.44	7.066
413.79	7.034
414.14	6.977
414.49	6.967
414.84	6.949
415.19	6.898
415.54	6.846
415.89	6.799
416.24	6.771
416.59	6.732
416.94	6.706
417.29	6.686
417.64	6.658
417.99	6.637
418.34	6.609
418.69	6.608
419.04	6.611
419.39	6.606
419.74	6.609
420.09	6.611
420.44	6.602
420.79	6.591
421.14	6.586
421.49	6.601
421.84	6.602
422.19	6.600
422.54	6.594
422.89	6.583
423.24	6.592
423.59	6.597
423.94	6.601
424.29	6.640
424.64	6.649
424.99	6.678
425.34	6.685
425.68	6.711
426.03	6.745
426.38	6.761
426.73	6.774
427.08	6.781
427.43	6.815
427.78	6.810
428.13	6.793
428.48	6.798
428.83	6.780
429.18	6.756
429.53	6.735
429.87	6.704
430.22	6.695
430.57	6.690
430.92	6.675
431.27	6.660
431.62	6.670
431.97	6.673
432.32	6.694
432.67	6.707
433.01	6.727
433.36	6.730
433.71	6.741
434.06	6.741
434.41	6.751
434.76	6.766
435.11	6.786
435.45	6.784
435.80	6.776
436.15	6.749
436.50	6.744
436.85	6.732
437.20	6.748
437.54	6.756
437.89	6.761
438.24	6.748
438.59	6.743
438.94	6.724
439.29	6.715
439.63	6.707
439.98	6.690
440.33	6.675
440.68	6.675
441.03	6.663
441.37	6.658
441.72	6.646
442.07	6.637
442.42	6.620
442.76	6.595
443.11	6.576
443.46	6.568
443.81	6.574
444.16	6.566
444.50	6.566
444.85	6.552
445.20	6.539
445.55	6.535
445.89	6.544
446.24	6.548
446.59	6.574
446.94	6.588
447.28	6.599
447.63	6.613
447.98	6.645
448.32	6.663
448.67	6.674
449.02	6.685
449.37	6.693
449.71	6.681
450.06	6.677
450.41	6.678
450.75	6.681
451.10	6.685
451.45	6.694
451.79	6.680
452.14	6.663
452.49	6.656
452.84	6.661
453.18	6.660
453.53	6.681
453.88	6.699
454.22	6.675
454.57	6.664
454.92	6.653
455.26	6.622
455.61	6.616
455.95	6.617
456.30	6.647
456.65	6.640
456.99	6.636
457.34	6.638
457.69	6.654
458.03	6.680
458.38	6.707
458.73	6.725
459.07	6.758
459.42	6.787
459.76	6.826
460.11	6.858
460.46	6.894
460.80	6.936
461.15	6.976
461.49	7.006
461.84	7.039
462.19	7.056
462.53	7.101
462.88	7.139
463.22	7.163
463.57	7.177
463.91	7.196
464.26	7.233
464.61	7.262
464.95	7.280
465.30	7.308
465.64	7.332
465.99	7.374
466.33	7.387
466.68	7.408
467.02	7.447
467.37	7.474
467.71	7.481
468.06	7.495
468.41	7.524
468.75	7.538
469.10	7.555
469.44	7.580
469.79	7.586
470.13	7.600
470.48	7.625
470.82	7.633
471.17	7.652
471.51	7.665
471.86	7.682
472.20	7.682
472.55	7.685
472.89	7.687
473.23	7.689
473.58	7.703
473.92	7.702
474.27	7.693
474.61	7.679
474.96	7.667
475.30	7.661
475.65	7.651
475.99	7.656
476.34	7.662
476.68	7.648
477.02	7.621
477.37	7.604
477.71	7.613
478.06	7.602
478.40	7.593
478.75	7.590
479.09	7.620
479.43	7.726
479.78	7.889
480.12	8.065
480.47	8.247
480.81	8.437
481.15	8.620
481.50	8.795
481.84	9.012
482.19	9.258
482.53	9.500
482.87	9.692
483.22	9.757
483.56	9.707
483.90	9.601
484.25	9.452
484.59	9.277
484.94	9.073
485.28	8.860
485.62	8.603
485.97	8.338
486.31	8.082
486.65	7.881
487.00	7.747
487.34	7.684
487.68	7.676
488.03	7.706
488.37	7.745
488.71	7.806
489.06	7.862
489.40	7.926
489.74	7.974
490.09	8.043
490.43	8.103
490.77	8.175
491.11	8.238
491.46	8.289
491.80	8.319
492.14	8.372
492.49	8.423
492.83	8.482
493.17	8.540
493.51	8.611
493.86	8.684
494.20	8.754
494.54	8.819
494.88	8.890
495.23	8.947
495.57	9.023
495.91	9.080
496.25	9.141
496.60	9.207
496.94	9.283
497.28	9.372
497.62	9.439
497.97	9.515
498.31	9.596
498.65	9.682
498.99	9.765
499.33	9.857
499.68	9.935
500.02	10.029
500.36	10.121
500.70	10.221
501.04	10.298
501.39	10.396
501.73	10.500
502.07	10.596
502.41	10.683
502.75	10.771
503.09	10.853
503.44	10.957
503.78	11.050
504.12	11.151
504.46	11.246
504.80	11.346
505.14	11.428
505.49	11.510
505.83	11.602
506.17	11.685
506.51	11.783
506.85	11.865
507.19	11.949
507.53	12.023
507.87	12.094
508.22	12.173
508.56	12.261
508.90	12.366
509.24	12.448
509.58	12.548
509.92	12.650
510.26	12.737
510.60	12.843
510.94	12.924
511.28	13.023
511.63	13.121
511.97	13.218
512.31	13.314
512.65	13.383
512.99	13.472
513.33	13.541
513.67	13.597
514.01	13.669
514.35	13.722
514.69	13.789
515.03	13.840
515.37	13.895
515.71	13.942
516.05	13.984
516.39	14.035
516.73	14.087
517.07	14.139
517.41	14.201
517.75	14.247
518.09	14.307
518.43	14.371
518.77	14.451
519.11	14.506
519.45	14.568
519.79	14.633
520.13	14.699
520.47	14.752
520.81	14.805
521.15	14.845
521.49	14.888
521.83	14.922
522.17	14.942
522.51	14.931
522.85	14.964
523.19	15.005
523.53	15.050
523.87	15.118
524.21	15.221
524.55	15.389
524.89	15.590
525.23	15.792
525.57	15.975
525.91	16.165
526.25	16.365
526.58	16.563
526.92	16.728
527.26	16.843
527.60	16.853
527.94	16.752
528.28	16.532
528.62	16.240
528.96	15.945
529.30	15.801
529.64	15.657
529.97	15.485
530.31	15.292
530.65	15.119
530.99	14.986
531.33	14.970
531.67	15.054
532.01	15.212
532.35	15.423
532.68	15.637
533.02	15.646
533.36	15.631
533.70	15.640
534.04	15.644
534.38	15.632
534.71	15.639
535.05	15.637
535.39	15.633
535.73	15.629
536.07	15.624
536.41	15.606
536.74	15.646
537.08	15.667
537.42	15.683
537.76	15.693
538.10	15.717
538.43	15.728
538.77	15.740
539.11	15.766
539.45	15.774
539.79	15.803
540.12	15.825
540.46	15.820
540.80	15.819
541.14	15.821
541.47	15.821
541.81	15.814
542.15	15.808
542.49	15.792
542.82	15.771
543.16	15.762
543.50	15.732
543.84	15.708
544.17	15.709
544.51	15.713
544.85	15.698
545.18	15.690
545.52	15.701
545.86	15.714
546.20	15.754
546.53	15.782
546.87	15.818
547.21	15.850
547.54	15.874
547.88	15.872
548.22	15.865
548.55	15.886
548.89	15.926
549.23	15.923
549.56	15.928
549.90	15.911
550.24	15.891
550.57	15.874
550.91	15.864
551.25	15.838
551.58	15.845
551.92	15.851
552.26	15.852
552.59	15.832
552.93	15.843
553.27	15.857
553.60	15.866
553.94	15.879
554.27	15.894
554.61	15.900
554.95	15.932
555.28	15.925
555.62	15.932
555.95	15.919
556.29	15.928
556.63	15.907
556.96	15.888
557.30	15.870
557.63	15.846
557.97	15.841
558.31	15.818
558.64	15.796
558.98	15.806
559.31	15.782
559.65	15.768
559.98	15.734
560.32	15.738
560.65	15.715
560.99	15.685
561.33	15.683
561.66	15.634
562.00	15.620
562.33	15.601
562.67	15.547
563.00	15.534
563.34	15.518
563.67	15.488
564.01	15.445
564.34	15.400
564.68	15.379
565.01	15.344
565.35	15.345
565.68	15.311
566.02	15.283
566.35	15.259
566.69	15.219
567.02	15.193
567.36	15.174
567.69	15.140
568.03	15.147
568.36	15.135
568.69	15.119
569.03	15.073
569.36	15.049
569.70	15.026
570.03	14.991
570.37	14.974
570.70	14.958
571.04	14.936
571.37	14.938
571.70	14.923
572.04	14.905
572.37	14.876
572.71	14.881
573.04	14.870
573.37	14.839
573.71	14.856
574.04	14.856
574.38	14.846
574.71	14.841
575.04	14.837
575.38	14.824
575.71	14.820
576.05	14.822
576.38	14.799
576.71	14.806
577.05	14.810
577.38	14.776
577.71	14.794
578.05	14.799
578.38	14.782
578.71	14.748
579.05	14.722
579.38	14.689
579.71	14.656
580.05	14.632
580.38	14.605
580.71	14.587
581.05	14.578
581.38	14.530
581.71	14.485
582.05	14.460
582.38	14.449
582.71	14.465
583.04	14.457
583.38	14.455
583.71	14.411
584.04	14.379
584.38	14.366
584.71	14.349
585.04	14.315
585.37	14.276
585.71	14.240
586.04	14.197
586.37	14.122
586.70	14.053
587.04	14.004
587.37	13.977
587.70	13.939
588.03	13.921
588.37	13.876
588.70	13.858
589.03	13.839
589.36	13.831
589.69	13.809
590.03	13.787
590.36	13.783
590.69	13.763
591.02	13.755
591.35	13.729
591.69	13.683
592.02	13.655
592.35	13.602
592.68	13.536
593.01	13.473
593.35	13.422
593.68	13.375
594.01	13.330
594.34	13.279
594.67	13.256
595.00	13.224
595.34	13.199
595.67	13.147
596.00	13.126
596.33	13.122
596.66	13.129
596.99	13.104
597.32	13.089
597.65	13.095
597.99	13.103
598.32	13.065
598.65	13.054
598.98	13.022
599.31	12.999
599.64	12.951
599.97	12.896
600.30	12.816
600.63	12.795
600.96	12.771
601.30	12.701
601.63	12.662
601.96	12.619
602.29	12.552
602.62	12.511
602.95	12.485
603.28	12.468
603.61	12.458
603.94	12.451
604.27	12.444
604.60	12.448
604.93	12.433
605.26	12.394
605.59	12.386
605.92	12.409
606.25	12.406
606.58	12.418
606.91	12.381
607.24	12.349
607.57	12.345
607.90	12.299
608.23	12.246
608.56	12.233
608.89	12.220
609.22	12.165
609.55	12.121
609.88	12.092
610.21	12.066
610.54	12.067
610.87	12.068
611.20	12.058
611.53	12.038
611.86	12.026
612.19	12.017
612.52	12.011
612.85	12.037
613.18	12.028
613.51	12.002
613.84	11.981
614.17	11.968
614.49	11.942
614.82	11.887
615.15	11.901
615.48	11.849
615.81	11.798
616.14	11.789
616.47	11.732
616.80	11.687
617.13	11.650
617.46	11.615
617.78	11.575
618.11	11.564
618.44	11.559
618.77	11.527
619.10	11.547
619.43	11.555
619.76	11.516
620.09	11.526
620.41	11.538
620.74	11.549
621.07	11.542
621.40	11.531
621.73	11.501
622.06	11.466
622.38	11.437
622.71	11.388
623.04	11.348
623.37	11.307
623.70	11.279
624.02	11.224
624.35	11.154
624.68	11.119
625.01	11.091
625.34	11.055
625.66	11.025
625.99	10.986
626.32	10.975
626.65	10.958
626.98	10.936
627.30	10.923
627.63	10.940
627.96	10.930
628.29	10.935
628.61	10.899
628.94	10.878
629.27	10.890
629.60	10.879
629.92	10.846
630.25	10.833
630.58	10.817
630.91	10.772
631.23	10.740
631.56	10.763
631.89	10.717
632.21	10.722
632.54	10.715
632.87	10.671
633.19	10.665
633.52	10.682
633.85	10.674
634.18	10.657
634.50	10.663
634.83	10.616
635.16	10.578
635.48	10.543
635.81	10.523
636.14	10.510
636.46	10.518
636.79	10.495
637.11	10.455
637.44	10.424
637.77	10.442
638.09	10.430
638.42	10.464
638.75	10.448
639.07	10.432
639.40	10.416
639.73	10.403
640.05	10.385
640.38	10.379
640.70	10.364
641.03	10.334
641.36	10.326
641.68	10.334
642.01	10.306
642.33	10.298
642.66	10.313
642.98	10.284
643.31	10.274
643.64	10.219
643.96	10.183
644.29	10.158
644.61	10.202
644.94	10.184
645.26	10.172
645.59	10.173
645.91	10.139
646.24	10.128
646.56	10.102
646.89	10.080
647.22	10.068
647.54	10.053
647.87	10.050
648.19	10.002
648.52	9.937
648.84	9.905
649.17	9.843
649.49	9.823
649.82	9.807
650.14	9.836
